n: 100
deposito: 47
clusters: 20
factor: 1

xcoord[n]:
1380.0
2848.0
3510.0
457.0
3888.0
984.0
2721.0
1286.0
2716.0
738.0
1251.0
2728.0
3815.0
3683.0
1247.0
123.0
1234.0
252.0
611.0
2576.0
928.0
53.0
1807.0
274.0
2574.0
178.0
2678.0
1795.0
3384.0
3520.0
1256.0
1424.0
3913.0
3085.0
2573.0
463.0
3875.0
298.0
3479.0
2542.0
3955.0
1323.0
3447.0
2936.0
1621.0
3373.0
1393.0
3874.0
938.0
3022.0
2482.0
3854.0
376.0
2519.0
2945.0
953.0
2628.0
2097.0
890.0
2139.0
2421.0
2290.0
1115.0
2588.0
327.0
241.0
1917.0
2991.0
2573.0
19.0
3911.0
872.0
2863.0
929.0
839.0
3893.0
2178.0
3822.0
378.0
1178.0
2599.0
3416.0
2961.0
611.0
3113.0
2597.0
2586.0
161.0
1429.0
742.0
1625.0
1187.0
1787.0
22.0
3640.0
3756.0
776.0
1724.0
198.0
3950.0

ycoord[n]:
939.0
96.0
1671.0
334.0
666.0
965.0
1482.0
525.0
1432.0
1325.0
1832.0
1698.0
169.0
1533.0
1945.0
862.0
1946.0
1240.0
673.0
1676.0
1700.0
857.0
1711.0
1420.0
946.0
24.0
1825.0
962.0
1498.0
1079.0
61.0
1728.0
192.0
1528.0
1969.0
1670.0
598.0
1513.0
821.0
236.0
1743.0
280.0
1830.0
337.0
1830.0
1646.0
1368.0
1318.0
955.0
474.0
1183.0
923.0
825.0
135.0
1622.0
268.0
1479.0
981.0
1846.0
1806.0
1007.0
1810.0
1052.0
302.0
265.0
341.0
687.0
792.0
599.0
674.0
1673.0
1559.0
558.0
1766.0
620.0
102.0
1619.0
899.0
1048.0
100.0
901.0
143.0
1605.0
1384.0
885.0
1830.0
1286.0
906.0
134.0
1025.0
1651.0
706.0
1009.0
987.0
43.0
882.0
392.0
1642.0
1810.0
1558.0

color[n]:
#84a6e9
#3a42b2
#688d41
#7b1349
#f87f6a
#1e33fd
#cd89fd
#d16a6a
#cd89fd
#6be087
#6be087
#cd89fd
#39f6b3
#688d41
#39ed4b
#feff9d
#6be087
#feff9d
#7b1349
#cd89fd
#6be087
#feff9d
#39ed4b
#c45c0e
#3badc5
#bf87c8
#1791df
#84a6e9
#688d41
#e113f6
#d16a6a
#39ed4b
#39f6b3
#688d41
#1791df
#c45c0e
#f87f6a
#c45c0e
#e113f6
#3a42b2
#c31a39
#d16a6a
#688d41
#3a42b2
#39ed4b
#688d41
#4364da
#c31a39
#1e33fd
#729383
#3badc5
#f87f6a
#feff9d
#3a42b2
#cd89fd
#7b1349
#cd89fd
#84a6e9
#6be087
#1791df
#3badc5
#1791df
#1e33fd
#3a42b2
#bf87c8
#bf87c8
#84a6e9
#729383
#3badc5
#feff9d
#c31a39
#6be087
#729383
#6be087
#7b1349
#39f6b3
#1791df
#f87f6a
#feff9d
#d16a6a
#3badc5
#39f6b3
#cd89fd
#6be087
#729383
#1791df
#cd89fd
#feff9d
#d16a6a
#1e33fd
#39ed4b
#1e33fd
#84a6e9
#feff9d
#39f6b3
#e113f6
#7b1349
#39ed4b
#c45c0e
#c31a39

Np[1]: 41 48 71 100  ;
Np[2]: 26 65 66  ;
Np[3]: 15 23 32 45 91 98  ;
Np[4]: 2 40 44 54 64  ;
Np[5]: 24 36 38 99  ;
Np[6]: 8 31 42 80 89  ;
Np[7]: 7 9 12 20 55 57 83 87  ;
Np[8]: 5 37 52 78  ;
Np[9]: 6 49 63 90 92  ;
Np[10]: 1 28 58 67 93  ;
Np[11]: 16 18 22 53 70 79 88 94  ;
Np[12]: 10 11 17 21 59 72 74 84  ;
Np[13]: 50 68 73 85  ;
Np[14]: 3 14 29 34 43 46  ;
Np[15]: 13 33 76 82 95  ;
Np[16]: 4 19 56 75 97  ;
Np[17]: 27 35 60 62 77 86  ;
Np[18]: 25 51 61 69 81  ;
Np[19]: 47  ;
Np[20]: 30 39 96  ;


c[n,n]:
	1692.83	2252.27	1103.61	2522.81	396.85	1446.77	424.54	1424.06	749.11	902.27	1546.99	2553.85	2378.37	1014.75	1259.36	1017.53	1167.47	813.71	1404.84	885.11	1329.53	882.22	1206.07	1194.02	1510.64	1571.56	415.64	2080.5	2144.57	886.71	790.23	2640.85	1803.87	1576.12	1172.71	2518.19	1224.83	2102.31	1358.11	2697.6	661.46	2250.86	1668.39	923.02	2114.69	429.2	2522.63	442.29	1706.57	1128.69	2474.05	1010.45	1394.18	1707.55	795.34	1359.82	718.23	1030.9	1152.29	1043.22	1259.66	288.09	1365.66	1250.23	1286.44	593.19	1617.69	1240.5	1386.56	2635.28	801.54	1531.16	941.98	628.05	2648.72	1048.43	2442.33	1007.91	862.97	1219.59	2186.07	1715.55	888.47	1733.84	1508.3	1254.93	1219.45	806.49	643.77	752.97	302.55	412.98	1358.85	2431.13	2376.68	814.88	782.65	1468.25	2643.49	
1692.83		1708.47	2402.82	1185.96	2056.61	1391.81	1619.84	1342.51	2441.83	2358.84	1606.49	969.75	1661.98	2445.81	2830.61	2455.1	2836.89	2310.22	1603.24	2501.84	2896.75	1921.43	2894.56	893.07	2670.97	1737.34	1363.37	1500.97	1190.74	1592.38	2165.92	1069.32	1451.48	1893.08	2857.57	1143.12	2917.26	961.14	336.51	1984.45	1536.06	1834.55	256.56	2124.21	1636.5	1932.62	1595.61	2094.27	416.12	1146.96	1302.29	2577.25	331.3	1529.08	1902.79	1400.39	1160.7	2626.07	1851.16	1006.11	1802.54	1979.2	331.72	2526.66	2618.49	1102.74	710.54	573.27	2887.44	1901.81	2458.65	462.24	2543.91	2076.21	1045.02	1663.86	1262.33	2647.11	1670.0	842.63	569.94	1513.23	2581.3	832.31	1752.07	1218.5	2806.43	1419.51	2301.8	1978.32	1769.47	1399.75	2963.13	793.77	1200.94	2093.04	1911.41	3155.99	1830.81	
2252.27	1708.47		3332.92	1073.74	2622.81	811.32	2501.9	829.19	2793.51	2264.73	782.47	1532.65	221.3	2279.53	3482.28	2292.55	3286.38	3065.98	934.01	2582.16	3551.54	1703.47	3245.72	1183.94	3716.83	846.13	1855.78	214.02	592.08	2769.95	2086.78	1532.92	448.41	983.25	3047.0	1133.38	3215.88	850.57	1730.97	450.79	2591.88	171.03	1452.25	1895.68	139.26	2138.57	507.06	2669.8	1292.65	1137.95	823.31	3246.18	1827.94	567.12	2916.62	902.66	1572.47	2625.84	1377.63	1275.47	1227.89	2473.7	1650.53	3479.7	3529.2	1872.41	1020.78	1423.78	3630.58	401.0	2640.38	1287.39	2582.75	2870.34	1615.07	1333.01	832.66	3193.36	2811.81	1192.82	1530.89	552.95	2913.17	880.57	926.74	1001.0	3435.26	2587.07	2842.38	1885.11	2515.46	1845.8	3554.43	1633.18	826.46	3018.38	1786.24	3314.92	454.28	
1103.61	2402.82	3332.92		3447.03	822.13	2538.42	850.72	2511.71	1030.07	1695.42	2649.14	3362.05	3441.61	1794.27	624.77	1789.49	928.9	372.34	2508.21	1444.92	660.87	1928.37	1101.31	2203.69	417.06	2675.06	1478.05	3149.96	3152.3	844.35	1696.56	3458.92	2886.52	2674.08	1336.01	3428.18	1189.67	3060.99	2087.3	3771.11	867.68	3343.37	2479.0	1895.5	3197.56	1394.72	3555.86	785.49	2568.82	2195.77	3447.68	497.64	2071.58	2801.62	500.37	2454.44	1763.01	1572.78	2235.15	2076.11	2353.39	973.9	2131.24	147.18	216.11	1502.07	2575.06	2132.53	554.48	3704.46	1293.39	2416.4	1507.78	477.2	3443.82	2147.8	3412.1	718.36	758.02	2215.77	2965.16	2808.11	1061.23	2712.55	2611.06	2332.15	644.05	992.36	747.47	1760.32	819.32	1491.48	784.62	3196.27	3344.2	324.23	1821.03	1498.55	3701.25	
2522.81	1185.96	1073.74	3447.03		2919.35	1423.99	2605.82	1400.12	3218.2	2883.28	1552.62	502.33	890.91	2934.4	3770.1	2946.54	3681.03	3277.01	1655.73	3135.4	3839.75	2328.64	3691.82	1343.5	3765.14	1675.52	2113.83	972.75	553.17	2700.64	2683.12	474.66	1178.07	1851.22	3569.12	69.23	3688.56	437.39	1413.02	1079.08	2593.88	1244.74	1007.25	2548.37	1107.08	2591.88	652.15	2964.12	887.03	1498.04	259.24	3515.6	1468.37	1342.83	2961.86	1499.52	1818.49	3221.86	2087.73	1506.11	1965.28	2799.74	1350.0	3583.51	3661.45	1971.11	905.81	1316.71	3869.01	1007.26	3145.43	1030.67	3156.85	3049.35	564.02	1957.63	242.17	3530.73	2768.48	1310.25	704.49	1319.49	3354.74	805.35	1738.27	1442.08	3734.72	2515.89	3166.42	2468.07	2701.3	2128.81	3879.3	670.55	253.14	3124.04	2373.91	3863.27	894.15	
396.85	2056.61	2622.81	822.13	2919.35		1812.31	533.67	1793.85	436.02	907.18	1891.78	2940.78	2758.12	1014.68	867.14	1012.35	781.95	473.7	1743.56	737.13	937.24	1110.79	843.28	1590.11	1239.0	1899.8	811.01	2458.47	2538.56	944.03	880.78	3029.29	2175.13	1879.61	876.62	2914.2	878.01	2499.15	1720.12	3071.18	764.29	2610.48	2050.53	1074.24	2484.17	574.19	2911.48	47.07	2096.31	1513.78	2870.31	623.91	1745.03	2068.13	697.69	1722.48	1113.11	886.0	1428.74	1437.61	1555.53	157.26	1735.62	960.03	970.27	973.54	2014.44	1630.61	1007.92	3011.41	604.47	1922.57	802.89	374.23	3034.31	1361.38	2838.77	611.66	886.49	1616.27	2567.16	2078.01	560.97	2130.5	1830.3	1633.84	825.11	942.65	249.33	938.87	329.07	804.2	962.25	2811.48	2773.24	609.58	1002.96	1154.05	3024.7	
1446.77	1391.81	811.32	2538.42	1423.99	1812.31		1724.84	50.25	1989.21	1511.09	216.11	1709.04	963.35	1545.01	2670.96	1557.71	2480.83	2259.77	242.2	1806.2	2740.23	942.25	2447.79	555.79	2931.32	345.68	1062.02	663.19	894.88	2040.95	1320.12	1756.41	366.9	508.99	2265.81	1453.68	2423.2	1005.73	1258.79	1261.3	1843.69	805.1	1165.01	1153.73	672.31	1332.88	1164.61	1859.25	1051.98	382.78	1263.4	2435.3	1362.06	264.15	2144.67	93.05	800.24	1866.83	666.11	561.81	541.61	1662.57	1187.47	2685.58	2729.89	1130.68	740.95	895.32	2820.22	1205.23	1850.6	934.85	1814.36	2070.02	1810.52	560.02	1245.83	2382.86	2071.42	593.67	1508.62	269.68	2112.27	714.19	369.43	237.99	2624.0	1867.18	2031.08	1108.95	1719.11	1046.94	2744.02	1707.42	1196.34	2229.6	1009.76	2544.23	1231.35	
424.54	1619.84	2501.9	850.72	2605.82	533.67	1724.84		1693.38	969.69	1307.47	1858.84	2553.93	2600.32	1420.54	1210.84	1421.95	1257.13	691.03	1728.84	1228.33	1276.92	1295.39	1350.99	1355.06	1216.0	1904.64	670.86	2312.65	2301.67	464.97	1210.89	2648.02	2059.71	1934.3	1410.09	2590.03	1397.24	2212.89	1288.82	2933.78	247.78	2524.47	1660.68	1347.31	2369.01	849.76	2706.77	553.18	1736.75	1365.06	2598.66	958.18	1293.21	1988.89	420.64	1646.54	930.41	1379.08	1539.02	1233.11	1630.72	554.05	1320.96	993.62	1061.08	651.46	1725.78	1289.13	1275.73	2865.05	1113.8	1577.35	1291.33	456.98	2641.09	1411.56	2563.43	1047.85	438.51	1365.78	2163.98	1992.99	1092.48	1862.13	1849.8	1506.36	1187.77	416.33	738.87	1175.92	206.31	696.6	1345.79	2402.84	2495.67	527.06	1199.81	1683.74	2857.27	
1424.06	1342.51	829.19	2511.71	1400.12	1793.85	50.25	1693.38		1980.89	1518.63	266.27	1674.21	972.26	1556.0	2654.91	1568.6	2471.47	2237.66	281.31	1807.97	2724.37	950.85	2442.03	506.32	2902.4	394.83	1033.99	671.25	878.08	2002.81	1325.47	1723.49	381.28	555.71	2265.54	1427.88	2419.36	977.49	1208.59	1277.44	1807.64	832.33	1116.88	1165.09	690.97	1324.55	1163.6	1840.87	1005.68	341.7	1246.65	2417.45	1311.88	297.56	2112.6	99.76	765.87	1872.34	687.61	517.35	569.53	1645.48	1137.23	2658.8	2704.79	1092.44	696.58	845.19	2801.49	1219.06	1848.37	886.28	1817.95	2045.11	1776.01	569.57	1227.73	2369.32	2034.62	543.74	1466.81	299.92	2105.55	675.88	415.41	195.49	2608.58	1827.89	2015.52	1112.76	1692.61	1020.77	2730.51	1668.26	1176.48	2201.18	1013.98	2546.21	1240.42	
749.11	2441.83	2793.51	1030.07	3218.2	436.02	1989.21	969.69	1980.89		721.26	2024.66	3286.98	2952.34	802.17	769.8	794.77	493.38	664.25	1871.21	420.39	829.61	1136.55	473.63	1874.71	1416.4	2003.4	1117.59	2651.65	2792.86	1366.02	795.62	3371.1	2355.76	1944.73	441.19	3220.14	478.48	2786.95	2107.21	3244.04	1197.6	2755.67	2409.84	1017.21	2654.48	656.41	3136.01	420.59	2437.39	1749.77	3141.82	617.29	2141.98	2226.89	1078.64	1896.26	1401.86	542.72	1481.27	1712.78	1626.02	465.47	2114.01	1136.89	1102.39	1340.55	2315.19	1973.4	969.93	3192.03	269.65	2259.18	480.59	712.2	3383.75	1469.71	3113.28	454.23	1301.62	1908.69	2927.25	2240.56	140.04	2415.41	1926.37	1848.41	713.08	1376.94	300.03	945.01	764.7	1095.56	791.77	3172.56	3050.34	933.77	1035.71	725.83	3220.44	
902.27	2358.84	2264.73	1695.42	2883.28	907.18	1511.09	1307.47	1518.63	721.26		1483.07	3056.09	2450.31	113.07	1487.71	115.26	1161.23	1323.96	1334.15	348.93	1544.61	569.01	1060.32	1592.27	2102.43	1427.02	1026.08	2158.99	2390.68	1771.01	201.85	3126.63	1859.02	1329.08	804.48	2899.68	1004.97	2446.65	2052.78	2705.46	1553.67	2196.0	2252.61	370.01	2130.14	485.24	2672.89	931.18	2231.73	1391.6	2757.15	1334.04	2118.4	1706.97	1592.14	1421.53	1199.97	361.27	888.38	1431.62	1039.23	791.77	2031.86	1819.14	1800.88	1324.61	2027.12	1807.75	1690.8	2664.75	467.09	2054.66	328.69	1280.11	3158.02	951.16	2735.06	1173.36	1733.54	1638.25	2745.9	1725.0	781.22	2088.98	1346.0	1442.34	1430.24	1707.3	954.11	415.5	1127.82	982.15	1491.46	2984.6	2679.09	1516.32	509.73	1053.23	2712.87	
1546.99	1606.49	782.47	2649.14	1552.62	1891.78	216.11	1858.84	266.27	2024.66	1483.07		1876.01	969.15	1501.46	2735.86	1514.44	2518.0	2352.09	153.58	1800.0	2804.09	921.09	2469.7	767.61	3050.37	136.49	1188.35	685.81	1005.2	2201.49	1304.35	1916.31	395.41	312.2	2265.17	1589.22	2437.03	1154.61	1473.78	1227.82	1996.18	731.02	1376.8	1114.84	647.09	1375.18	1207.36	1938.08	1258.81	570.74	1366.93	2508.79	1576.91	229.92	2279.37	240.75	955.12	1843.95	598.82	756.13	452.09	1737.55	1403.0	2796.12	2833.13	1296.09	943.4	1109.88	2896.08	1183.26	1861.2	1147.97	1800.28	2174.95	1975.97	555.64	1354.71	2438.24	2226.23	807.37	1700.4	250.87	2140.16	899.55	185.97	435.78	2686.4	2033.1	2096.93	1104.0	1832.69	1166.28	2797.85	1889.65	1312.49	2348.6	1005.56	2532.48	1229.99	
2553.85	969.75	1532.65	3362.05	502.33	2940.78	1709.04	2553.93	1674.21	3286.98	3056.09	1876.01		1370.37	3122.31	3756.48	3133.57	3720.49	3243.4	1950.94	3267.83	3824.39	2531.76	3755.49	1464.18	3639.89	2008.76	2170.08	1397.14	956.62	2561.28	2854.36	100.66	1542.65	2186.91	3672.72	433.18	3765.05	733.48	1274.76	1580.21	2494.47	1701.28	894.91	2751.83	1541.72	2702.53	1150.51	2982.44	849.63	1674.84	755.01	3501.01	1296.45	1693.55	2863.71	1767.79	1900.23	3371.64	2342.81	1626.49	2240.2	2840.72	1234.19	3489.32	3578.14	1967.42	1033.01	1314.33	3829.44	1507.06	3254.74	1028.41	3298.39	3009.98	102.83	2186.84	730.03	3547.62	2637.9	1419.32	399.85	1670.75	3426.64	1002.73	2059.72	1660.76	3727.58	2386.26	3189.99	2644.32	2682.3	2195.08	3880.2	215.64	715.44	3047.17	2557.74	3971.85	1395.55	
2378.37	1661.98	221.3	3441.61	890.91	2758.12	963.35	2600.32	972.26	2952.34	2450.31	969.15	1370.37		2470.6	3622.68	2483.58	3443.49	3190.11	1116.2	2760.06	3692.41	1884.43	3410.87	1254.77	3816.03	1046.56	1972.46	301.04	482.37	2838.51	2267.4	1360.58	598.02	1192.56	3222.91	954.51	3385.06	740.65	1727.45	343.63	2672.0	379.35	1410.12	2083.28	329.95	2295.94	287.59	2805.19	1248.36	1250.96	633.51	3381.94	1819.15	743.35	3008.84	1056.38	1679.32	2810.48	1567.95	1367.23	1420.27	2612.66	1647.54	3587.56	3642.56	1958.18	1013.88	1450.67	3763.35	267.55	2811.12	1273.98	2763.84	2986.96	1446.33	1507.46	649.06	3340.4	2885.92	1254.78	1415.41	725.58	3075.61	863.02	1125.88	1124.46	3577.38	2652.87	2984.55	2061.38	2629.44	1967.08	3701.49	1490.62	655.08	3122.9	1962.03	3495.99	268.17	
1014.75	2445.81	2279.53	1794.27	2934.4	1014.68	1545.01	1420.54	1556.0	802.17	113.07	1501.46	3122.31	2470.6		1560.85	13.04	1219.45	1422.14	1355.95	402.23	1615.36	606.92	1105.6	1661.0	2198.41	1436.02	1125.43	2183.25	2432.38	1884.02	280.03	3190.7	1884.71	1326.22	830.83	2953.1	1042.7	2499.04	2144.23	2715.52	1666.73	2203.0	2332.03	391.28	2146.92	595.18	2700.79	1037.1	2305.31	1451.16	2800.17	1418.82	2212.26	1728.45	1702.58	1457.5	1285.22	370.47	902.77	1502.7	1051.7	902.7	2120.79	1915.41	1893.37	1425.29	2090.68	1889.44	1767.32	2677.85	538.16	2129.61	364.92	1386.39	3224.59	986.43	2779.34	1248.91	1846.29	1708.17	2819.89	1747.4	848.07	2146.06	1354.89	1492.38	1502.97	1820.12	1049.49	478.87	1240.45	1080.6	1555.12	3056.8	2724.89	1622.85	565.1	1057.65	2730.56	
1259.36	2830.61	3482.28	624.77	3770.1	867.14	2670.96	1210.84	2654.91	769.8	1487.71	2735.86	3756.48	3622.68	1560.85		1552.22	399.41	523.32	2584.53	1162.01	70.18	1885.91	578.07	2452.44	839.8	2730.46	1674.99	3322.44	3403.92	1387.55	1562.87	3848.77	3035.95	2688.48	876.62	3761.28	674.11	3356.25	2498.69	3931.97	1333.69	3462.08	2861.57	1783.54	3343.23	1367.09	3778.62	820.29	2924.85	2380.74	3731.5	255.69	2503.87	2922.55	1020.65	2579.87	1977.58	1247.62	2226.07	2302.57	2365.29	1010.03	2527.81	630.89	534.2	1802.52	2868.85	2464.08	214.85	3873.84	1023.14	2756.81	1211.14	755.79	3845.84	2189.99	3699.19	315.63	1301.41	2476.31	3370.58	2933.65	714.58	2990.09	2656.63	2499.23	58.14	1495.2	640.1	1696.62	1075.38	1670.48	160.7	3611.1	3633.06	804.56	1780.9	950.96	3889.77	
1017.53	2455.1	2292.55	1789.49	2946.54	1012.35	1557.71	1421.95	1568.6	794.77	115.26	1514.44	3133.57	2483.58	13.04	1552.22		1209.45	1417.27	1368.89	392.62	1606.45	619.32	1094.66	1672.0	2192.99	1449.06	1132.69	2196.18	2444.89	1885.13	289.18	3202.12	1897.61	1339.2	818.91	2965.13	1031.3	2511.11	2152.9	2728.56	1668.38	2216.04	2342.15	404.01	2159.94	599.47	2713.67	1034.26	2315.97	1462.76	2812.64	1411.67	2220.57	1741.41	1701.37	1470.14	1294.6	358.24	915.76	1513.5	1064.72	901.89	2129.8	1910.08	1887.35	1432.33	2102.09	1899.3	1759.04	2690.88	529.92	2140.14	354.15	1383.58	3235.83	999.03	2791.77	1240.62	1846.85	1719.08	2830.54	1760.34	839.03	2157.86	1367.93	1504.49	1494.3	1822.46	1044.18	489.8	1240.89	1088.02	1545.52	3067.61	2737.26	1620.09	576.64	1044.89	2743.57	
1167.47	2836.89	3286.38	928.9	3681.03	781.95	2480.83	1257.13	2471.47	493.38	1161.23	2518.0	3720.49	3443.49	1219.45	399.41	1209.45		671.1	2364.54	817.66	431.61	1624.77	181.34	2340.54	1218.25	2495.54	1567.84	3142.61	3271.96	1548.57	1269.54	3808.05	2847.6	2432.79	478.98	3679.44	276.85	3254.09	2500.42	3737.01	1438.28	3249.02	2831.83	1490.72	3147.3	1148.16	3622.84	742.85	2873.96	2230.73	3615.92	433.13	2521.97	2719.96	1198.41	2387.99	1863.09	879.93	1970.06	2181.48	2116.21	883.24	2517.29	977.88	899.07	1754.43	2775.4	2407.89	612.08	3684.53	697.25	2698.6	857.32	853.8	3814.7	1962.94	3586.25	229.65	1468.7	2371.36	3348.78	2733.48	386.8	2882.94	2418.08	2334.45	346.17	1615.11	535.09	1433.2	1076.75	1552.28	341.92	3593.24	3522.24	996.83	1525.91	572.55	3711.65	
813.71	2310.22	3065.98	372.34	3277.01	473.7	2259.77	691.03	2237.66	664.25	1323.96	2352.09	3243.4	3190.11	1422.14	523.32	1417.27	671.1		2206.18	1074.81	587.55	1583.62	819.5	1981.89	780.19	2366.35	1218.76	2893.12	2937.2	889.14	1331.91	3336.85	2617.58	2351.4	1007.93	3264.86	896.42	2871.82	1979.83	3511.02	813.26	3062.93	2349.15	1535.82	2928.37	1046.21	3326.14	431.8	2419.2	1939.26	3252.62	279.87	1982.4	2519.55	530.08	2172.08	1517.58	1205.72	1902.23	1840.56	2027.76	630.6	2011.51	497.11	497.12	1306.08	2382.97	1963.4	592.0	3448.19	923.64	2254.93	1138.32	234.08	3331.3	1830.41	3218.94	441.49	806.11	2001.03	2854.63	2528.07	711.0	2510.97	2298.44	2067.94	506.74	979.61	375.59	1408.79	576.94	1223.06	667.47	3093.82	3151.94	325.86	1475.71	1209.69	3454.29	
1404.84	1603.24	934.01	2508.21	1655.73	1743.56	242.2	1728.84	281.31	1871.21	1334.15	153.58	1950.94	1116.2	1355.95	2584.53	1368.89	2364.54	2206.18		1648.17	2652.6	769.8	2316.19	730.0	2911.96	180.57	1058.19	827.37	1116.94	2085.82	1153.17	1997.45	530.08	293.02	2113.01	1688.04	2283.82	1243.56	1440.4	1380.63	1875.85	884.51	1386.55	967.34	797.56	1222.44	1346.47	1789.66	1282.08	501.88	1483.34	2358.86	1542.05	372.93	2148.63	203.75	844.08	1694.55	455.93	686.72	315.84	1588.68	1374.05	2654.98	2689.69	1188.45	976.57	1077.0	2746.32	1335.0	1708.01	1154.25	1649.46	2032.81	2052.31	402.06	1468.42	2285.95	2106.7	775.34	1748.05	391.49	1986.58	956.06	155.43	390.13	2534.78	1921.82	1946.11	951.33	1694.17	1033.16	2645.3	1949.05	1422.26	2211.03	852.68	2381.77	1379.06	
885.11	2501.84	2582.16	1444.92	3135.4	737.13	1806.2	1228.33	1807.97	420.39	348.93	1800.0	3267.83	2760.06	402.23	1162.01	392.62	817.66	1074.81	1648.17		1215.02	879.07	711.42	1810.48	1836.16	1754.46	1138.57	2464.29	2665.35	1671.5	496.79	3344.29	2163.85	1666.85	465.97	3146.3	657.17	2698.19	2179.06	3027.31	1473.91	2522.35	2426.9	705.09	2445.6	571.36	2970.66	745.07	2426.5	1637.74	3027.41	1034.57	2231.7	2018.51	1432.22	1714.3	1372.41	150.86	1215.63	1645.99	1366.43	674.44	2170.25	1555.77	1522.78	1415.73	2253.98	1979.45	1370.75	2983.12	151.71	2246.86	66.01	1083.66	3368.21	1252.62	3002.8	853.0	1619.41	1852.2	2935.03	2035.22	447.6	2332.05	1674.06	1708.91	1103.96	1644.19	700.16	698.72	1027.19	1102.43	1152.91	3178.14	2943.93	1316.8	798.11	738.24	3025.33	
1329.53	2896.75	3551.54	660.87	3839.75	937.24	2740.23	1276.92	2724.37	829.61	1544.61	2804.09	3824.39	3692.41	1615.36	70.18	1606.45	431.61	587.55	2652.6	1215.02		1950.85	604.82	2522.57	842.33	2797.79	1745.16	3392.11	3474.1	1442.51	1624.28	3916.86	3105.36	2754.44	910.53	3830.77	700.26	3426.19	2565.3	4001.32	1394.93	3530.72	2929.52	1845.36	3412.47	1434.13	3848.71	890.41	2993.6	2450.78	3801.57	324.58	2569.52	2991.47	1075.6	2649.06	2047.76	1295.64	2291.72	2372.75	2431.54	1079.75	2595.04	652.33	549.18	1871.74	2938.72	2533.17	186.13	3943.35	1078.69	2825.86	1262.4	820.95	3913.52	2257.49	3769.23	376.97	1355.98	2546.38	3437.96	3002.66	767.52	3060.13	2723.72	2569.07	118.6	1554.38	709.19	1761.14	1144.01	1740.65	133.65	3678.2	3703.08	859.62	1846.2	963.97	3959.55	
882.22	1921.43	1703.47	1928.37	2328.64	1110.79	942.25	1295.39	950.85	1136.55	569.01	921.09	2531.76	1884.43	606.92	1885.91	619.32	1624.77	1583.62	769.8	879.07	1950.85		1560.37	1083.29	2345.12	878.43	749.1	1591.32	1825.87	1739.57	383.38	2596.65	1291.04	808.28	1344.63	2348.49	1521.93	1894.12	1647.98	2148.24	1510.63	1644.31	1778.35	220.81	1567.35	537.63	2104.03	1151.82	1733.9	856.98	2193.43	1683.08	1729.37	1141.47	1676.77	853.15	785.49	926.88	345.32	934.14	493.04	955.59	1610.98	2069.13	2080.69	1029.89	1498.81	1350.3	2066.96	2104.34	947.27	1563.5	879.72	1458.53	2634.44	382.24	2172.46	1575.31	1729.44	1132.86	2246.67	1158.86	1239.9	1545.29	798.91	887.39	1832.3	1621.67	1266.82	191.64	1180.86	702.28	1926.24	2478.33	2117.98	1674.13	107.94	1612.04	2148.45	
1206.07	2894.56	3245.72	1101.31	3691.82	843.28	2447.79	1350.99	2442.03	473.63	1060.32	2469.7	3755.49	3410.87	1105.6	578.07	1094.66	181.34	819.5	2316.19	711.42	604.82	1560.37		2348.33	1399.3	2437.88	1588.46	3110.98	3263.86	1676.66	1190.53	3840.61	2813.07	2363.64	313.4	3693.63	96.05	3260.49	2558.45	3695.14	1549.19	3199.38	2873.87	1408.02	3107.23	1120.21	3601.44	810.63	2906.27	2220.68	3614.33	603.68	2586.75	2678.63	1337.22	2354.74	1875.11	748.95	1904.53	2186.36	2053.38	917.99	2569.93	1156.22	1079.5	1799.09	2788.63	2441.2	788.38	3645.79	613.94	2728.73	740.77	979.4	3851.53	1914.37	3586.05	386.26	1599.88	2382.22	3391.59	2693.36	338.92	2888.97	2358.9	2315.88	526.27	1728.53	612.41	1370.61	1159.04	1567.83	500.99	3636.77	3523.32	1144.02	1466.9	397.34	3678.59	
1194.02	893.07	1183.94	2203.69	1343.5	1590.11	555.79	1355.06	506.32	1874.71	1592.27	767.61	1464.18	1254.77	1661.0	2452.44	1672.0	2340.54	1981.89	730.0	1810.48	2522.57	1083.29	2348.33		2567.27	885.13	779.16	980.21	955.3	1587.56	1390.69	1536.7	774.5	1023.0	2231.7	1346.74	2345.56	913.59	710.72	1594.48	1417.24	1242.41	708.47	1299.87	1062.26	1254.13	1352.18	1636.02	650.76	254.23	1280.21	2201.33	812.86	771.11	1757.08	535.73	478.28	1909.41	963.76	164.71	909.48	1462.85	644.15	2347.93	2410.17	706.21	444.53	347.0	2569.44	1521.87	1809.03	483.8	1838.05	1765.36	1565.92	780.86	1248.88	2198.37	1632.34	51.48	1163.52	764.23	2011.27	542.44	884.3	340.21	2413.33	1403.7	1833.7	1182.21	1407.61	789.52	2552.33	1397.06	1183.73	1881.41	1098.6	2528.22	1505.96	
1510.64	2670.97	3716.83	417.06	3765.14	1239.0	2931.32	1216.0	2902.4	1416.4	2102.43	3050.37	3639.89	3816.03	2198.41	839.8	2192.99	1218.25	780.19	2911.96	1836.16	842.33	2345.12	1399.3	2567.27		3081.17	1869.37	3528.61	3504.57	1078.63	2110.96	3738.78	3273.02	3085.3	1670.49	3741.29	1493.83	3395.85	2373.49	4149.78	1173.27	3734.7	2775.7	2311.68	3583.14	1811.78	3915.97	1201.82	2879.38	2579.09	3784.33	825.11	2343.63	3195.29	812.5	2849.48	2144.39	1956.18	2649.73	2448.95	2765.92	1390.95	2425.98	283.34	323.2	1861.1	2915.95	2463.06	669.16	4080.99	1684.6	2737.59	1896.99	890.02	3715.82	2558.13	3747.58	1043.35	1002.88	2574.95	3240.19	3200.73	1427.27	3058.68	3018.81	2718.66	882.16	1255.83	1148.95	2177.37	1217.87	1886.56	975.55	3462.05	3679.44	702.16	2237.87	1786.11	4071.99	
1571.56	1737.34	846.13	2675.06	1675.52	1899.8	345.68	1904.64	394.83	2003.4	1427.02	136.49	2008.76	1046.56	1436.02	2730.46	1449.06	2495.54	2366.35	180.57	1754.46	2797.79	878.43	2437.88	885.13	3081.17		1234.69	778.05	1124.94	2265.78	1257.75	2047.42	503.84	178.22	2220.42	1714.16	2400.36	1284.37	1594.81	1279.63	2055.01	769.02	1510.2	1057.01	717.68	1363.85	1299.02	1945.38	1394.11	671.25	1482.09	2509.82	1697.46	335.41	2323.76	349.59	1024.64	1788.12	539.33	857.42	388.29	1743.7	1525.66	2821.49	2853.28	1369.0	1079.38	1230.49	2897.43	1242.33	1825.48	1280.44	1749.99	2198.62	2108.31	540.77	1471.81	2427.7	2285.96	927.37	1836.78	358.45	2113.52	1035.77	81.15	546.8	2679.52	2102.26	2094.78	1067.28	1864.2	1208.2	2785.06	2025.08	1432.25	2381.41	971.39	2480.05	1299.72	
415.64	1363.37	1855.78	1478.05	2113.83	811.01	1062.02	670.86	1033.99	1117.59	1026.08	1188.35	2170.08	1972.46	1125.43	1674.99	1132.69	1567.84	1218.76	1058.19	1138.57	1745.16	749.1	1588.46	779.16	1869.37	1234.69		1676.97	1728.96	1049.92	851.12	2253.62	1408.71	1272.53	1508.47	2111.61	1595.18	1689.89	1041.67	2296.86	829.4	1866.15	1300.96	885.27	1719.87	571.35	2109.26	857.03	1320.48	721.67	2059.37	1425.6	1099.14	1325.93	1091.15	980.4	302.6	1265.1	911.41	627.62	981.9	685.93	1031.72	1625.06	1673.49	300.85	1208.02	858.52	1799.2	2232.26	1099.24	1141.86	1181.68	1015.33	2267.42	760.49	2027.98	1419.61	1060.06	806.31	1816.15	1331.54	1256.96	1320.25	1181.79	854.78	1634.96	905.28	1054.88	709.66	659.7	47.68	1773.18	2061.21	1962.63	1167.59	683.7	1808.18	2235.9	
2080.5	1500.97	214.02	3149.96	972.75	2458.47	663.19	2312.65	671.25	2651.65	2158.99	685.81	1397.14	301.04	2183.25	3322.44	2196.18	3142.61	2893.12	827.37	2464.29	3392.11	1591.32	3110.98	980.21	3528.61	778.05	1676.97		440.52	2567.75	1973.45	1409.07	300.5	937.85	2926.06	1025.22	3086.04	683.63	1517.11	621.34	2394.0	337.92	1244.44	1793.99	148.41	1995.24	522.02	2505.55	1086.1	955.42	742.65	3082.37	1614.31	456.18	2724.46	756.24	1386.96	2518.16	1282.53	1080.95	1137.62	2312.42	1436.67	3296.29	3349.19	1676.25	808.01	1210.75	3464.42	555.3	2512.74	1074.73	2469.58	2692.19	1485.9	1212.05	742.05	3039.5	2611.67	986.22	1355.38	436.32	2775.34	670.23	854.16	825.68	3276.92	2383.8	2684.01	1765.64	2335.4	1670.19	3400.61	1477.35	719.61	2832.83	1666.23	3201.24	569.17	
2144.57	1190.74	592.08	3152.3	553.17	2538.56	894.88	2301.67	878.08	2792.86	2390.68	1005.2	956.62	482.37	2432.38	3403.92	2444.89	3271.96	2937.2	1116.94	2665.35	3474.1	1825.87	3263.86	955.3	3504.57	1124.94	1728.96	440.52		2482.34	2194.18	970.16	625.16	1299.58	3113.6	597.82	3251.1	261.24	1291.18	793.8	2337.78	754.54	944.26	2042.11	585.75	2146.54	427.13	2584.98	783.6	1043.2	368.64	3154.24	1375.91	790.87	2692.06	977.58	1426.37	2739.56	1560.67	1101.36	1430.83	2405.15	1213.41	3295.12	3361.02	1650.23	601.84	1061.7	3524.35	711.14	2691.15	838.5	2680.53	2720.01	1045.78	1446.57	351.57	3142.15	2538.39	938.04	941.76	767.57	2924.95	450.87	1189.93	956.66	3363.45	2294.63	2778.52	1979.45	2362.63	1734.41	3499.21	1042.93	307.42	2828.69	1882.18	3401.48	643.69	
886.71	1592.38	2769.95	844.35	2700.64	944.03	2040.95	464.97	2002.81	1366.02	1771.01	2201.49	2561.28	2838.51	1884.02	1387.55	1885.13	1548.57	889.14	2085.82	1671.5	1442.51	1739.57	1676.66	1587.56	1078.63	2265.78	1049.92	2567.75	2482.34		1675.44	2660.23	2344.64	2318.39	1793.8	2673.49	1739.56	2349.33	1297.85	3180.21	229.02	2816.0	1702.52	1806.26	2644.6	1314.16	2904.13	948.87	1813.65	1661.91	2737.27	1165.37	1265.17	2299.88	366.96	1973.1	1246.47	1822.14	1955.69	1500.71	2031.79	1000.98	1353.63	951.13	1052.91	910.38	1882.71	1422.65	1380.56	3106.05	1546.43	1682.1	1736.07	697.4	2637.32	1810.37	2699.37	1321.0	87.21	1584.06	2161.56	2300.21	1471.85	2031.61	2219.83	1808.18	1383.13	187.77	1092.47	1632.26	648.68	1086.58	1542.8	2384.07	2631.36	583.06	1648.81	2044.1	3081.99	
790.23	2165.92	2086.78	1696.56	2683.12	880.78	1320.12	1210.89	1325.47	795.62	201.85	1304.35	2854.36	2267.4	280.03	1562.87	289.18	1269.54	1331.91	1153.17	496.79	1624.28	383.38	1190.53	1390.69	2110.96	1257.75	851.12	1973.45	2194.18	1675.44		2924.79	1673.0	1174.0	962.75	2698.94	1146.34	2246.26	1864.4	2531.04	1451.52	2025.57	2054.51	221.84	1950.72	361.33	2484.07	913.09	2031.29	1190.12	2559.87	1383.37	1933.05	1524.69	1534.09	1229.48	1005.45	546.88	719.24	1230.39	869.87	743.27	1840.75	1828.6	1822.98	1151.84	1825.26	1610.85	1756.4	2487.61	577.29	1854.62	496.46	1252.95	2956.32	761.84	2537.25	1247.6	1646.48	1436.86	2545.64	1541.91	882.78	1887.69	1177.43	1243.22	1506.93	1594.01	979.46	215.24	1049.12	805.44	1585.78	2783.86	2480.71	1484.86	312.08	1228.74	2531.71	
2640.85	1069.32	1532.92	3458.92	474.66	3029.29	1756.41	2648.02	1723.49	3371.1	3126.63	1916.31	100.66	1360.58	3190.7	3848.77	3202.12	3808.05	3336.85	1997.45	3344.29	3916.86	2596.65	3840.61	1536.7	3738.78	2047.42	2253.62	1409.07	970.16	2660.23	2924.79		1571.78	2225.61	3753.26	407.77	3848.8	764.2	1371.71	1551.57	2591.49	1703.0	987.7	2817.15	1551.04	2780.89	1126.68	3071.29	934.56	1740.64	733.38	3593.2	1395.16	1726.82	2960.98	1818.68	1979.99	3445.9	2398.35	1700.08	2291.74	2927.18	1329.56	3586.74	3675.02	2056.46	1100.04	1400.45	3923.72	1481.0	3334.12	1111.96	3373.68	3103.65	92.2	2246.45	712.83	3637.16	2736.55	1493.08	499.41	1703.78	3510.57	1058.42	2101.17	1719.82	3819.33	2484.68	3278.59	2713.6	2774.04	2277.58	3971.39	311.01	707.64	3143.37	2625.68	4052.05	1366.5	
1803.87	1451.48	448.41	2886.52	1178.07	2175.13	366.9	2059.71	381.28	2355.76	1859.02	395.41	1542.65	598.02	1884.71	3035.95	1897.61	2847.6	2617.58	530.08	2163.85	3105.36	1291.04	2813.07	774.5	3273.02	503.84	1408.71	300.5	625.16	2344.64	1673.0	1571.78		675.74	2625.84	1220.25	2787.04	809.37	1401.47	896.17	2159.2	471.43	1200.28	1494.82	311.24	1699.55	816.47	2222.15	1055.88	694.72	978.46	2798.73	1503.6	168.63	2476.49	459.62	1129.32	2217.92	986.0	844.0	843.53	2026.69	1322.91	3033.44	3081.77	1439.27	741.98	1060.75	3182.71	838.63	2213.22	995.08	2169.1	2422.6	1639.01	911.55	968.92	2749.23	2382.4	793.3	1424.0	145.96	2478.19	643.61	573.89	554.59	2989.42	2164.62	2396.38	1465.17	2068.35	1397.91	3110.41	1585.32	931.43	2573.32	1365.77	2900.74	865.52	
1576.12	1893.08	983.25	2674.08	1851.22	1879.61	508.99	1934.3	555.71	1944.73	1329.08	312.2	2186.91	1192.56	1326.22	2688.48	1339.2	2432.79	2351.4	293.02	1666.85	2754.44	808.28	2363.64	1023.0	3085.3	178.22	1272.53	937.85	1299.58	2318.39	1174.0	2225.61	675.74		2131.08	1890.73	2320.25	1462.44	1733.28	1400.36	2101.24	884.98	1671.88	962.09	862.75	1324.24	1454.79	1923.91	1560.97	791.25	1653.81	2477.0	1834.79	508.72	2349.0	493.08	1096.69	1687.49	463.6	973.93	324.61	1722.4	1667.07	2819.24	2844.05	1440.09	1249.02	1370.0	2863.55	1370.35	1749.71	1440.49	1656.49	2196.94	2286.5	527.75	1644.66	2380.39	2332.21	1068.32	2011.2	532.02	2047.36	1211.06	141.06	683.12	2635.85	2162.4	2060.02	999.91	1875.14	1240.72	2733.48	2201.81	1606.57	2390.84	909.8	2380.32	1437.03	
1172.71	2857.57	3047.0	1336.01	3569.12	876.62	2265.81	1410.09	2265.54	441.19	804.48	2265.17	3672.72	3222.91	830.83	876.62	818.91	478.98	1007.93	2113.01	465.97	910.53	1344.63	313.4	2231.7	1670.49	2220.42	1508.47	2926.06	3113.6	1793.8	962.75	3753.26	2625.84	2131.08		3576.44	227.76	3133.22	2525.59	3492.76	1634.53	2988.29	2809.38	1169.0	2910.1	977.81	3429.11	858.4	2824.69	2076.9	3472.3	849.47	2565.81	2482.46	1485.16	2173.41	1773.32	461.85	1681.51	2067.2	1832.36	898.35	2527.26	1411.57	1347.41	1755.11	2676.13	2366.25	1090.48	3448.0	423.79	2645.1	475.79	1115.29	3771.41	1715.76	3446.35	627.78	1725.14	2270.21	3324.45	2498.85	322.02	2763.82	2139.99	2157.45	821.52	1814.51	702.76	1162.16	1205.6	1479.83	813.0	3569.38	3385.97	1315.77	1261.31	299.71	3488.8	
2518.19	1143.12	1133.38	3428.18	69.23	2914.2	1453.68	2590.03	1427.88	3220.14	2899.68	1589.22	433.18	954.51	2953.1	3761.28	2965.13	3679.44	3264.86	1688.04	3146.3	3830.77	2348.49	3693.63	1346.74	3741.29	1714.16	2111.61	1025.22	597.82	2673.49	2698.94	407.77	1220.25	1890.73	3576.44		3692.17	454.47	1381.28	1147.79	2571.74	1304.23	974.6	2568.72	1162.03	2598.7	720.0	2958.62	861.97	1510.85	325.68	3506.36	1432.87	1383.28	2940.58	1526.82	1818.78	3235.39	2114.94	1510.43	1995.29	2797.09	1320.6	3563.59	3643.08	1960.02	905.04	1302.0	3856.75	1075.6	3153.02	1012.79	3169.09	3036.08	496.33	1980.47	305.63	3525.83	2742.59	1311.48	646.3	1359.94	3357.3	814.26	1775.14	1461.12	3726.75	2489.62	3161.96	2484.21	2690.17	2128.07	3872.59	602.7	307.92	3105.84	2390.97	3871.6	962.93	
1224.83	2917.26	3215.88	1189.67	3688.56	878.01	2423.2	1397.24	2419.36	478.48	1004.97	2437.03	3765.05	3385.06	1042.7	674.11	1031.3	276.85	896.42	2283.82	657.17	700.26	1521.93	96.05	2345.56	1493.83	2400.36	1595.18	3086.04	3251.1	1739.56	1146.34	3848.8	2787.04	2320.25	227.76	3692.17		3255.4	2581.91	3664.23	1603.41	3164.92	2888.26	1360.45	3077.87	1104.56	3581.31	849.1	2915.42	2208.79	3604.61	692.41	2613.76	2649.24	1406.79	2330.25	1876.01	679.23	1864.17	2182.47	2014.02	938.09	2590.49	1248.34	1173.39	1817.54	2787.85	2451.74	884.17	3616.54	575.84	2737.01	679.83	1044.09	3861.99	1882.99	3577.09	471.83	1664.62	2381.0	3405.7	2664.59	338.54	2884.2	2320.75	2299.23	622.27	1783.48	659.76	1334.16	1200.65	1571.99	594.01	3651.01	3515.1	1218.66	1431.82	313.38	3652.28	
2102.31	961.14	850.57	3060.99	437.39	2499.15	1005.73	2212.89	977.49	2786.95	2446.65	1154.61	733.48	740.65	2499.04	3356.25	2511.11	3254.09	2871.82	1243.56	2698.19	3426.19	1894.12	3260.49	913.59	3395.85	1284.37	1689.89	683.63	261.24	2349.33	2246.26	764.2	809.37	1462.44	3133.22	454.47	3255.4		1104.62	1037.62	2222.84	1009.51	727.4	2114.3	831.78	2156.53	634.85	2544.53	573.81	1060.69	388.62	3103.0	1179.91	962.68	2585.82	1075.72	1391.23	2784.52	1663.08	1074.23	1546.56	2375.26	1031.14	3200.66	3273.38	1567.74	488.86	932.8	3463.12	955.26	2709.45	669.79	2719.47	2647.64	829.67	1526.24	351.76	3109.3	2411.32	883.63	680.92	939.67	2922.74	371.55	1340.15	1006.81	3319.09	2162.05	2744.59	2031.31	2294.88	1702.41	3460.98	794.48	283.64	2736.83	1937.54	3426.82	874.65	
1358.11	336.51	1730.97	2087.3	1413.02	1720.12	1258.79	1288.82	1208.59	2107.21	2052.78	1473.78	1274.76	1727.45	2144.23	2498.69	2152.9	2500.42	1979.83	1440.4	2179.06	2565.3	1647.98	2558.45	710.72	2373.49	1594.81	1041.67	1517.11	1291.18	1297.85	1864.4	1371.71	1401.47	1733.28	2525.59	1381.28	2581.91	1104.62		2065.82	1219.79	1832.99	406.74	1840.94	1636.66	1612.96	1716.09	1757.78	535.76	948.9	1480.98	2244.66	103.59	1443.4	1589.32	1245.97	867.78	2306.77	1620.9	780.44	1594.05	1643.83	80.45	2215.19	2303.39	770.73	714.66	364.32	2560.74	1984.72	2130.55	454.67	2223.21	1745.76	1357.63	1430.1	1441.52	2311.33	1370.76	667.44	878.93	1431.69	2246.48	864.43	1594.95	1050.92	2473.47	1117.66	1965.33	1686.15	1434.2	1080.53	2629.52	1114.83	1375.18	1772.88	1626.64	2823.44	1931.36	
2697.6	1984.45	450.79	3771.11	1079.08	3071.18	1261.3	2933.78	1277.44	3244.04	2705.46	1227.82	1580.21	343.63	2715.52	3931.97	2728.56	3737.01	3511.02	1380.63	3027.31	4001.32	2148.24	3695.14	1594.48	4149.78	1279.63	2296.86	621.34	793.8	3180.21	2531.04	1551.57	896.17	1400.36	3492.76	1147.79	3664.23	1037.62	2065.82		3011.28	515.4	1736.43	2335.62	590.03	2589.3	432.65	3118.21	1575.07	1575.86	826.2	3694.86	2155.87	1017.22	3344.79	1353.01	2008.19	3066.73	1817.09	1701.43	1666.35	2922.85	1986.25	3917.51	3969.81	2295.34	1354.14	1794.06	4078.59	82.68	3088.49	1611.42	3026.09	3312.19	1642.17	1781.32	854.42	3643.89	3226.64	1596.15	1688.35	1003.53	3363.22	1202.13	1360.78	1443.26	3885.23	2994.92	3292.25	2331.82	2955.87	2288.88	4005.0	1728.94	883.7	3454.16	2233.29	3757.6	185.07	
661.46	1536.06	2591.88	867.68	2593.88	764.29	1843.69	247.78	1807.64	1197.6	1553.67	1996.18	2494.47	2672.0	1666.73	1333.69	1668.38	1438.28	813.26	1875.85	1473.91	1394.93	1510.63	1549.19	1417.24	1173.27	2055.01	829.4	2394.0	2337.78	229.02	1451.52	2591.49	2159.2	2101.24	1634.53	2571.74	1603.41	2222.84	1219.79	3011.28		2629.43	1614.01	1578.39	2463.42	1090.25	2754.1	777.08	1710.04	1469.25	2611.4	1092.63	1204.76	2105.2	370.19	1772.18	1044.26	1624.76	1730.47	1316.86	1809.97	799.53	1265.19	996.11	1083.72	720.06	1744.81	1290.06	1362.22	2939.08	1356.19	1564.89	1537.35	591.49	2576.16	1588.69	2574.52	1217.72	231.14	1419.09	2097.48	2106.81	1313.68	1889.48	2006.38	1614.68	1319.89	180.42	944.77	1403.87	447.18	864.14	1480.69	2329.09	2506.37	558.35	1419.8	1899.09	2921.37	
2250.86	1834.55	171.03	3343.37	1244.74	2610.48	805.1	2524.47	832.33	2755.67	2196.0	731.02	1701.28	379.35	2203.0	3462.08	2216.04	3249.02	3062.93	884.51	2522.35	3530.72	1644.31	3199.38	1242.41	3734.7	769.02	1866.15	337.92	754.54	2816.0	2025.57	1703.0	471.43	884.98	2988.29	1304.23	3164.92	1009.51	1832.99	515.4	2629.43		1578.03	1826.0	198.32	2105.32	666.69	2657.2	1421.04	1161.82	994.13	3231.26	1932.41	543.39	2942.77	891.05	1594.77	2557.05	1308.22	1315.3	1157.17	2458.35	1752.9	3490.5	3534.91	1909.8	1133.75	1509.71	3617.67	489.84	2589.22	1399.66	2518.81	2875.02	1784.63	1286.42	1003.69	3167.06	2853.29	1257.83	1687.28	535.56	2870.86	1002.29	850.0	1018.46	3413.44	2636.05	2822.24	1830.77	2524.08	1851.93	3527.22	1797.39	997.09	3033.49	1733.23	3249.06	571.83	
1668.39	256.56	1452.25	2479.0	1007.25	2050.53	1165.01	1660.68	1116.88	2409.84	2252.61	1376.8	894.91	1410.12	2332.03	2861.57	2342.15	2831.83	2349.15	1386.55	2426.9	2929.52	1778.35	2873.87	708.47	2775.7	1510.2	1300.96	1244.44	944.26	1702.52	2054.51	987.7	1200.28	1671.88	2809.38	974.6	2888.26	727.4	406.74	1736.43	1614.01	1578.03		1989.54	1380.02	1855.75	1357.28	2091.39	161.76	960.12	1089.09	2606.1	463.35	1285.03	1984.2	1182.81	1057.67	2542.28	1671.28	845.06	1608.43	1956.34	349.76	2609.99	2695.0	1077.43	458.31	447.68	2936.4	1653.94	2398.62	232.74	2463.76	2116.01	985.43	1489.32	1049.21	2654.97	1773.9	657.01	517.72	1268.25	2549.87	575.88	1531.0	1011.48	2832.73	1520.61	2299.34	1856.16	1787.5	1331.08	2985.61	762.92	984.59	2160.7	1781.0	3109.08	1587.15	
923.02	2124.21	1895.68	1895.5	2548.37	1074.24	1153.73	1347.31	1165.09	1017.21	370.01	1114.84	2751.83	2083.28	391.28	1783.54	404.01	1490.72	1535.82	967.34	705.09	1845.36	220.81	1408.02	1299.87	2311.68	1057.01	885.27	1793.99	2042.11	1806.26	221.84	2817.15	1494.82	962.09	1169.0	2568.72	1360.45	2114.3	1840.94	2335.62	1578.39	1826.0	1989.54		1761.64	515.2	2310.44	1110.01	1949.75	1077.0	2410.17	1600.02	1918.18	1340.24	1698.84	1066.42	973.33	731.18	518.56	1147.75	669.3	928.07	1808.28	2030.68	2030.15	1180.71	1718.82	1556.17	1975.54	2295.38	796.52	1777.79	694.95	1440.7	2854.46	595.63	2389.8	1468.53	1785.82	1348.9	2463.33	1358.76	1104.09	1766.09	976.0	1107.77	1727.82	1706.83	1191.92	179.04	1204.88	837.61	1807.61	2696.24	2336.01	1667.89	214.37	1423.14	2344.83	
2114.69	1636.5	139.26	3197.56	1107.08	2484.17	672.31	2369.01	690.97	2654.48	2130.14	647.09	1541.72	329.95	2146.92	3343.23	2159.94	3147.3	2928.37	797.56	2445.6	3412.47	1567.35	3107.23	1062.26	3583.14	717.68	1719.87	148.41	585.75	2644.6	1950.72	1551.04	311.24	862.75	2910.1	1162.03	3077.87	831.78	1636.66	590.03	2463.42	198.32	1380.02	1761.64		1999.42	598.82	2531.15	1223.43	1004.12	868.38	3107.42	1735.64	428.67	2784.83	763.49	1438.89	2491.04	1244.33	1146.57	1095.35	2334.82	1556.46	3344.44	3393.0	1743.45	935.54	1317.65	3492.01	538.68	2502.51	1201.6	2446.94	2733.83	1629.21	1195.3	871.56	3054.12	2684.8	1074.29	1503.61	414.04	2774.4	804.19	797.52	865.43	3296.14	2462.78	2703.29	1748.01	2379.54	1709.14	3415.18	1625.08	854.63	2883.91	1649.0	3179.23	583.67	
429.2	1932.62	2138.57	1394.72	2591.88	574.19	1332.88	849.76	1324.55	656.41	485.24	1375.18	2702.53	2295.94	595.18	1367.09	599.47	1148.16	1046.21	1222.44	571.36	1434.13	537.63	1120.21	1254.13	1811.78	1363.85	571.35	1995.24	2146.54	1314.16	361.33	2780.89	1699.55	1324.24	977.81	2598.7	1104.56	2156.53	1612.96	2589.3	1090.25	2105.32	1855.75	515.2	1999.42		2481.5	614.49	1858.19	1104.6	2500.91	1152.88	1669.78	1572.65	1184.74	1239.98	803.36	693.9	865.08	1089.54	999.99	420.88	1601.37	1533.94	1543.32	859.27	1698.64	1408.46	1539.32	2536.4	554.91	1678.39	611.31	930.82	2802.28	824.15	2473.86	1064.25	1286.1	1293.26	2364.98	1585.81	782.16	1786.53	1289.6	1195.81	1315.78	1234.53	735.83	365.94	693.31	533.03	1422.96	2608.57	2412.46	1154.67	429.69	1274.12	2564.05	
2522.63	1595.61	507.06	3555.86	652.15	2911.48	1164.61	2706.77	1163.6	3136.01	2672.89	1207.36	1150.51	287.59	2700.79	3778.62	2713.67	3622.84	3326.14	1346.47	2970.66	3848.71	2104.03	3601.44	1352.18	3915.97	1299.02	2109.26	522.02	427.13	2904.13	2484.07	1126.68	816.47	1454.79	3429.11	720.0	3581.31	634.85	1716.09	432.65	2754.1	666.69	1357.28	2310.44	598.82	2481.5		2958.36	1199.27	1398.53	395.51	3532.57	1798.75	977.47	3103.99	1256.36	1808.67	3030.35	1802.32	1485.91	1658.65	2771.79	1638.92	3700.0	3762.08	2056.21	1027.8	1486.46	3908.42	356.92	3011.66	1264.8	2978.88	3114.23	1216.15	1722.5	422.21	3506.41	2958.37	1341.46	1261.11	957.05	3263.67	875.56	1375.82	1288.4	3735.79	2716.59	3145.68	2273.52	2755.81	2109.75	3866.2	1296.3	451.69	3233.43	2174.28	3708.78	251.75	
442.29	2094.27	2669.8	785.49	2964.12	47.07	1859.25	553.18	1840.87	420.59	931.18	1938.08	2982.44	2805.19	1037.1	820.29	1034.26	742.85	431.8	1789.66	745.07	890.41	1151.82	810.63	1636.02	1201.82	1945.38	857.03	2505.55	2584.98	948.87	913.09	3071.29	2222.15	1923.91	858.4	2958.62	849.1	2544.53	1757.78	3118.21	777.08	2657.2	2091.39	1110.01	2531.15	614.49	2958.36		2138.79	1560.74	2916.18	576.84	1781.0	2114.93	687.16	1769.37	1159.29	892.29	1471.94	1483.91	1599.67	201.84	1774.52	921.64	928.87	1015.02	2059.46	1673.31	961.0	3058.47	607.6	1965.51	811.05	349.32	3075.65	1406.59	2884.54	567.67	888.05	1661.88	2607.65	2124.86	539.42	2176.13	1875.61	1680.91	778.54	956.62	208.12	977.95	352.14	850.72	916.56	2851.76	2818.95	585.84	1043.92	1130.76	3071.77	
1706.57	416.12	1292.65	2568.82	887.03	2096.31	1051.98	1736.75	1005.68	2437.39	2231.73	1258.81	849.63	1248.36	2305.31	2924.85	2315.97	2873.96	2419.2	1282.08	2426.5	2993.6	1733.9	2906.27	650.76	2879.38	1394.11	1320.48	1086.1	783.6	1813.65	2031.29	934.56	1055.88	1560.97	2824.69	861.97	2915.42	573.81	535.76	1575.07	1710.04	1421.04	161.76	1949.75	1223.43	1858.19	1199.27	2138.79		891.22	945.42	2669.18	606.57	1150.58	2079.23	1079.47	1054.83	2535.31	1598.1	803.3	1523.39	1992.67	466.84	2703.09	2784.18	1125.34	319.51	466.08	3009.65	1492.62	2408.26	179.82	2459.66	2187.88	947.11	1422.45	905.88	2705.59	1881.55	601.05	514.58	1132.64	2577.02	420.95	1421.04	921.65	2893.43	1628.88	2345.63	1826.73	1849.61	1345.9	3043.55	753.45	839.77	2247.5	1746.15	3124.08	1426.97	
1128.69	1146.96	1137.95	2195.77	1498.04	1513.78	382.78	1365.06	341.7	1749.77	1391.6	570.74	1674.84	1250.96	1451.16	2380.74	1462.76	2230.73	1939.26	501.88	1637.74	2450.78	856.98	2220.68	254.23	2579.09	671.25	721.67	955.42	1043.2	1661.91	1190.12	1740.64	694.72	791.25	2076.9	1510.85	2208.79	1060.69	948.9	1575.86	1469.25	1161.82	960.12	1077.0	1004.12	1104.6	1398.53	1560.74	891.22		1396.42	2136.21	1048.65	638.04	1781.87	330.05	434.77	1724.54	711.18	186.27	655.74	1373.26	887.35	2342.38	2393.96	751.83	641.84	591.05	2515.04	1510.68	1653.32	731.97	1658.82	1736.78	1777.49	531.52	1369.76	2108.33	1695.08	305.31	1397.84	638.38	1881.77	697.83	657.14	146.37	2337.47	1486.34	1747.16	976.46	1380.06	716.45	2467.8	1624.98	1309.07	1880.46	886.14	2368.5	1515.14	
2474.05	1302.29	823.31	3447.68	259.24	2870.31	1263.4	2598.66	1246.65	3141.82	2757.15	1366.93	755.01	633.51	2800.17	3731.5	2812.64	3615.92	3252.62	1483.34	3027.41	3801.57	2193.43	3614.33	1280.21	3784.33	1482.09	2059.37	742.65	368.64	2737.27	2559.87	733.38	978.46	1653.81	3472.3	325.68	3604.61	388.62	1480.98	826.2	2611.4	994.13	1089.09	2410.17	868.38	2500.91	395.51	2916.18	945.42	1396.42		3479.38	1550.22	1146.68	2974.03	1346.18	1757.96	3104.39	1928.97	1435.46	1798.02	2742.04	1410.11	3587.85	3659.58	1951.32	872.89	1321.34	3843.08	752.16	3049.07	1056.08	3044.06	3030.19	821.93	1814.77	40.0	3478.25	2799.7	1255.19	894.56	1123.64	3275.6	741.97	1550.06	1318.94	3693.04	2550.13	3113.67	2344.87	2675.81	2068.79	3832.53	905.65	106.23	3123.47	2248.08	3762.06	642.22	
1010.45	2577.25	3246.18	497.64	3515.6	623.91	2435.3	958.18	2417.45	617.29	1334.04	2508.79	3501.01	3381.94	1418.82	255.69	1411.67	433.13	279.87	2358.86	1034.57	324.58	1683.08	603.68	2201.33	825.11	2509.82	1425.6	3082.37	3154.24	1165.37	1383.37	3593.2	2798.73	2477.0	849.47	3506.36	692.41	3103.0	2244.66	3694.86	1092.63	3231.26	2606.1	1600.02	3107.42	1152.88	3532.57	576.84	2669.18	2136.21	3479.38		2251.34	2689.79	801.98	2345.04	1728.06	1143.08	2017.56	2053.08	2152.58	773.08	2272.99	562.14	502.47	1547.17	2615.21	2208.59	387.62	3635.29	885.87	2501.29	1091.46	506.35	3590.55	1969.17	3446.79	223.01	1081.12	2224.3	3115.56	2700.12	606.39	2737.66	2437.8	2257.57	229.75	1259.48	417.08	1497.42	819.68	1422.95	389.31	3356.37	3380.48	589.48	1576.26	1000.95	3648.39	
1394.18	331.3	1827.94	2071.58	1468.37	1745.03	1362.06	1293.21	1311.88	2141.98	2118.4	1576.91	1296.45	1819.15	2212.26	2503.87	2220.57	2521.97	1982.4	1542.05	2231.7	2569.52	1729.37	2586.75	812.86	2343.63	1697.46	1099.14	1614.31	1375.91	1265.17	1933.05	1395.16	1503.6	1834.79	2565.81	1432.87	2613.76	1179.91	103.59	2155.87	1204.76	1932.41	463.35	1918.18	1735.64	1669.78	1798.75	1781.0	606.57	1048.65	1550.22	2251.34		1546.82	1571.64	1348.41	945.41	2362.45	1713.66	877.49	1690.58	1676.93	180.69	2195.85	2287.3	816.77	808.97	467.13	2557.44	2074.39	2177.24	545.22	2277.78	1748.61	1374.4	1522.67	1510.47	2327.54	1341.46	770.17	897.04	1535.01	2280.45	956.73	1696.79	1152.95	2480.85	1090.0	1987.42	1759.97	1449.23	1140.04	2638.35	1124.77	1445.05	1761.85	1703.84	2862.28	2018.09	
1707.55	1529.08	567.12	2801.62	1342.83	2068.13	264.15	1988.89	297.56	2226.89	1706.97	229.92	1693.55	743.35	1728.45	2922.55	1741.41	2719.96	2519.55	372.93	2018.51	2991.47	1141.47	2678.63	771.11	3195.29	335.41	1325.93	456.18	790.87	2299.88	1524.69	1726.82	168.63	508.72	2482.46	1383.28	2649.24	962.68	1443.4	1017.22	2105.2	543.39	1285.03	1340.24	428.67	1572.65	977.47	2114.93	1150.58	638.04	1146.68	2689.79	1546.82		2408.61	347.76	1063.01	2067.17	826.74	807.96	681.45	1916.72	1367.42	2948.79	2992.09	1389.61	831.27	1088.54	3075.74	967.35	2073.96	1067.16	2021.14	2332.22	1791.4	767.01	1136.6	2630.39	2332.12	799.72	1552.19	23.35	2346.1	755.91	405.42	491.71	2874.6	2124.24	2282.46	1320.32	1982.33	1310.24	2991.18	1725.19	1097.87	2493.48	1221.16	2753.43	1007.04	
795.34	1902.79	2916.62	500.37	2961.86	697.69	2144.67	420.64	2112.6	1078.64	1592.14	2279.37	2863.71	3008.84	1702.58	1020.65	1701.37	1198.41	530.08	2148.63	1432.22	1075.6	1676.77	1337.22	1757.08	812.5	2323.76	1091.15	2724.46	2692.06	366.96	1534.09	2960.98	2476.49	2349.0	1485.16	2940.58	1406.79	2585.82	1589.32	3344.79	370.19	2942.77	1984.2	1698.84	2784.83	1184.74	3103.99	687.16	2079.23	1781.87	2974.03	801.98	1571.64	2408.61		2066.92	1348.0	1579.26	1942.17	1643.52	2040.91	800.56	1635.35	626.01	715.73	1051.12	2104.29	1653.47	1018.43	3274.72	1293.54	1931.89	1498.19	370.0	2944.68	1823.68	2937.57	969.03	280.8	1763.52	2466.17	2412.39	1167.23	2246.39	2267.73	1924.32	1017.01	494.5	785.86	1537.62	496.59	1115.63	1176.32	2696.4	2869.46	216.11	1575.54	1716.91	3262.84	
1359.82	1400.39	902.66	2454.44	1499.52	1722.48	93.05	1646.54	99.76	1896.26	1421.53	240.75	1767.79	1056.38	1457.5	2579.87	1470.14	2387.99	2172.08	203.75	1714.3	2649.06	853.15	2354.74	535.73	2849.48	349.59	980.4	756.24	977.58	1973.1	1229.48	1818.68	459.62	493.08	2173.41	1526.82	2330.25	1075.72	1245.97	1353.01	1772.18	891.05	1182.81	1066.42	763.49	1239.98	1256.36	1769.37	1079.47	330.05	1346.18	2345.04	1348.41	347.76	2066.92		727.99	1776.33	588.26	515.4	473.08	1572.1	1177.68	2601.61	2644.39	1064.32	777.01	881.72	2730.37	1297.58	1757.82	950.51	1723.07	1984.54	1869.85	471.27	1327.42	2290.91	2001.03	578.73	1551.08	356.04	2019.24	766.85	352.37	197.52	2532.67	1801.84	1939.87	1017.64	1635.24	963.42	2652.04	1756.77	1276.24	2147.43	918.58	2452.44	1324.36	
718.23	1160.7	1572.47	1763.01	1818.49	1113.11	800.24	930.41	765.87	1401.86	1199.97	955.12	1900.23	1679.32	1285.22	1977.58	1294.6	1863.09	1517.58	844.08	1372.41	2047.76	785.49	1875.11	478.28	2144.39	1024.64	302.6	1386.96	1426.37	1246.47	1005.45	1979.99	1129.32	1096.69	1773.32	1818.78	1876.01	1391.23	867.78	2008.19	1044.26	1594.77	1057.67	973.33	1438.89	803.36	1808.67	1159.29	1054.83	434.77	1757.96	1728.06	945.41	1063.01	1348.0	727.99		1484.95	826.07	325.04	851.17	984.56	837.93	1909.33	1963.25	344.73	913.76	610.33	2100.56	1941.51	1354.51	875.03	1407.28	1308.77	1999.56	643.12	1726.95	1720.31	1273.08	508.33	1562.69	1065.77	1539.68	1020.53	985.29	576.32	1937.45	1078.72	1355.71	819.56	950.64	311.26	2075.01	1805.74	1661.95	1446.36	758.98	2072.06	1940.76	
1030.9	2626.07	2625.84	1572.78	3221.86	886.0	1866.83	1379.08	1872.34	542.72	361.27	1843.95	3371.64	2810.48	370.47	1247.62	358.24	879.93	1205.72	1694.55	150.86	1295.64	926.88	748.95	1909.41	1956.18	1788.12	1265.1	2518.16	2739.56	1822.14	546.88	3445.9	2217.92	1687.49	461.85	3235.39	679.23	2784.52	2306.77	3066.73	1624.76	2557.05	2542.28	731.18	2491.04	693.9	3030.35	892.29	2535.31	1724.54	3104.39	1143.08	2362.45	2067.17	1579.26	1776.33	1484.95		1249.64	1745.82	1400.46	825.26	2295.03	1678.25	1638.97	1548.55	2350.56	2094.64	1460.21	3025.95	287.56	2356.2	89.0	1227.06	3472.69	1307.85	3081.14	948.13	1769.59	1952.87	3046.45	2084.98	539.71	2421.83	1707.07	1786.06	1189.55	1794.84	834.23	760.43	1178.05	1226.86	1221.19	3288.36	3023.78	1458.46	858.59	692.94	3073.52	
1152.29	1851.16	1377.63	2235.15	2087.73	1428.74	666.11	1539.02	687.61	1481.27	888.38	598.82	2342.81	1567.95	902.77	2226.07	915.76	1970.06	1902.23	455.93	1215.63	2291.72	345.32	1904.53	963.76	2649.73	539.33	911.41	1282.53	1560.67	1955.69	719.24	2398.35	986.0	463.6	1681.51	2114.94	1864.17	1663.08	1620.9	1817.09	1730.47	1308.22	1671.28	518.56	1244.33	865.08	1802.32	1471.94	1598.1	711.18	1928.97	2017.56	1713.66	826.74	1942.17	588.26	826.07	1249.64		847.3	151.05	1271.65	1569.59	2378.66	2397.63	1140.81	1324.42	1282.66	2403.29	1776.98	1290.85	1442.8	1210.66	1759.71	2445.43	191.02	1911.84	1917.21	1958.05	1015.2	2096.74	846.22	1585.2	1340.49	458.63	685.72	2173.13	1816.5	1600.49	536.86	1454.75	871.27	2269.9	2315.42	1862.38	1963.97	446.23	1941.0	1827.9	
1043.22	1006.11	1275.47	2076.11	1506.11	1437.61	561.81	1233.11	517.35	1712.78	1431.62	756.13	1626.49	1367.23	1502.7	2302.57	1513.5	2181.48	1840.56	686.72	1645.99	2372.75	934.14	2186.36	164.71	2448.95	857.42	627.62	1080.95	1101.36	1500.71	1230.39	1700.08	844.0	973.93	2067.2	1510.43	2182.47	1074.23	780.44	1701.43	1316.86	1315.3	845.06	1147.75	1146.57	1089.54	1485.91	1483.91	803.3	186.27	1435.46	2053.08	877.49	807.96	1643.52	515.4	325.04	1745.82	847.3		813.62	1306.78	724.51	2221.58	2279.46	597.01	609.2	435.39	2424.97	1632.07	1644.42	630.05	1673.96	1628.65	1727.95	658.48	1405.16	2043.41	1538.73	207.17	1317.77	805.73	1848.85	702.67	841.61	324.14	2262.26	1321.44	1679.1	1023.89	1270.18	634.0	2399.08	1554.11	1340.84	1756.2	942.89	2363.59	1625.25	
1259.66	1802.54	1227.89	2353.39	1965.28	1555.53	541.61	1630.72	569.53	1626.02	1039.23	452.09	2240.2	1420.27	1051.7	2365.29	1064.72	2116.21	2027.76	315.84	1366.43	2431.54	493.04	2053.38	909.48	2765.92	388.29	981.9	1137.62	1430.83	2031.79	869.87	2291.74	843.53	324.61	1832.36	1995.29	2014.02	1546.56	1594.05	1666.35	1809.97	1157.17	1608.43	669.3	1095.35	999.99	1658.65	1599.67	1523.39	655.74	1798.02	2152.58	1690.58	681.45	2040.91	473.08	851.17	1400.46	151.05	813.62		1398.28	1537.16	2498.08	2521.18	1183.32	1236.01	1243.63	2539.28	1626.78	1440.04	1376.89	1361.71	1876.57	2342.41	221.42	1782.4	2058.25	2039.77	960.08	2011.66	701.62	1732.2	1238.13	307.65	601.82	2312.98	1884.22	1735.66	683.74	1560.58	945.84	2412.71	2223.69	1735.03	2074.35	590.41	2092.0	1679.02	
288.09	1979.2	2473.7	973.9	2799.74	157.26	1662.57	554.05	1645.48	465.47	791.77	1737.55	2840.72	2612.66	902.7	1010.03	901.89	883.24	630.6	1588.68	674.44	1079.75	955.59	917.99	1462.85	1390.95	1743.7	685.93	2312.42	2405.15	1000.98	743.27	2927.18	2026.69	1722.4	898.35	2797.09	938.09	2375.26	1643.83	2922.85	799.53	2458.35	1956.34	928.07	2334.82	420.88	2771.79	201.84	1992.67	1373.26	2742.04	773.08	1676.93	1916.72	800.56	1572.1	984.56	825.26	1271.65	1306.78	1398.28		1652.95	1113.69	1126.68	881.15	1893.93	1526.75	1159.35	2864.13	562.23	1816.46	737.83	512.64	2935.95	1204.76	2711.32	737.01	954.08	1491.66	2474.04	1927.05	603.52	2004.97	1673.8	1489.5	965.11	970.22	373.98	786.7	353.41	673.37	1094.93	2719.14	2646.47	741.97	847.93	1189.73	2879.8	
1365.66	331.72	1650.53	2131.24	1350.0	1735.62	1187.47	1320.96	1137.23	2114.01	2031.86	1403.0	1234.19	1647.54	2120.79	2527.81	2129.8	2517.29	2011.51	1374.05	2170.25	2595.04	1610.98	2569.93	644.15	2425.98	1525.66	1031.72	1436.67	1213.41	1353.63	1840.75	1329.56	1322.91	1667.07	2527.26	1320.6	2590.49	1031.14	80.45	1986.25	1265.19	1752.9	349.76	1808.28	1556.46	1601.37	1638.92	1774.52	466.84	887.35	1410.11	2272.99	180.69	1367.42	1635.35	1177.68	837.93	2295.03	1569.59	724.51	1537.16	1652.95		2261.3	2347.32	773.61	634.44	297.38	2595.79	1905.25	2127.14	375.71	2212.6	1777.67	1320.24	1379.34	1370.83	2332.51	1424.4	599.1	843.13	1355.34	2253.72	784.55	1528.03	984.0	2501.03	1171.11	1982.53	1657.46	1458.09	1068.39	2655.86	1083.41	1304.08	1814.23	1594.4	2825.98	1852.72	
1250.23	2526.66	3479.7	147.18	3583.51	960.03	2685.58	993.62	2658.8	1136.89	1819.14	2796.12	3489.32	3587.56	1915.41	630.89	1910.08	977.88	497.11	2654.98	1555.77	652.33	2069.13	1156.22	2347.93	283.34	2821.49	1625.06	3296.29	3295.12	951.13	1828.6	3586.74	3033.44	2819.24	1411.57	3563.59	1248.34	3200.66	2215.19	3917.51	996.11	3490.5	2609.99	2030.68	3344.44	1533.94	3700.0	921.64	2703.09	2342.38	3587.85	562.14	2195.85	2948.79	626.01	2601.61	1909.33	1678.25	2378.66	2221.58	2498.08	1113.69	2261.3		114.77	1645.05	2715.63	2270.7	512.0	3850.65	1404.09	2552.87	1617.22	623.03	3569.72	2293.36	3552.04	784.66	866.85	2359.34	3091.41	2955.26	1154.48	2854.15	2757.2	2479.02	662.15	1109.76	865.92	1898.89	966.48	1638.64	783.78	3320.43	3484.07	466.62	1961.57	1550.38	3846.81	
1286.44	2618.49	3529.2	216.11	3661.45	970.27	2729.89	1061.08	2704.79	1102.39	1800.88	2833.13	3578.14	3642.56	1893.37	534.2	1887.35	899.07	497.12	2689.69	1522.78	549.18	2080.69	1079.5	2410.17	323.2	2853.28	1673.49	3349.19	3361.02	1052.91	1822.98	3675.02	3081.77	2844.05	1347.41	3643.08	1173.39	3273.38	2303.39	3969.81	1083.72	3534.91	2695.0	2030.15	3393.0	1543.32	3762.08	928.87	2784.18	2393.96	3659.58	502.47	2287.3	2992.09	715.73	2644.39	1963.25	1638.97	2397.63	2279.46	2521.18	1126.68	2347.32	114.77		1711.34	2786.74	2346.23	400.22	3904.24	1371.75	2630.96	1582.39	659.88	3659.81	2320.61	3624.21	720.15	967.5	2423.58	3181.17	2999.35	1106.68	2923.07	2787.09	2528.25	570.64	1205.9	847.85	1905.66	1013.97	1684.14	682.11	3412.04	3556.39	537.43	1972.79	1469.63	3903.56	
593.19	1102.74	1872.41	1502.07	1971.11	973.54	1130.68	651.46	1092.44	1340.55	1324.61	1296.09	1967.42	1958.18	1425.29	1802.52	1432.33	1754.43	1306.08	1188.45	1415.73	1871.74	1029.89	1799.09	706.21	1861.1	1369.0	300.85	1676.25	1650.23	910.38	1151.84	2056.46	1439.27	1440.09	1755.11	1960.02	1817.54	1567.74	770.73	2295.34	720.06	1909.8	1077.43	1180.71	1743.45	859.27	2056.21	1015.02	1125.34	751.83	1951.32	1547.17	816.77	1389.61	1051.12	1064.32	344.73	1548.55	1140.81	597.01	1183.32	881.15	773.61	1645.05	1711.34		1079.12	661.88	1898.04	2224.46	1361.03	954.75	1463.01	1080.08	2060.78	967.86	1916.76	1580.77	943.76	714.79	1594.66	1390.2	1480.35	1212.28	1329.98	897.98	1769.6	737.53	1222.65	1007.25	730.25	347.25	1918.6	1839.42	1849.31	1178.52	974.31	2053.31	2211.73	
1617.69	710.54	1020.78	2575.06	905.81	2014.44	740.95	1725.78	696.58	2315.19	2027.12	943.4	1033.01	1013.88	2090.68	2868.85	2102.09	2775.4	2382.97	976.57	2253.98	2938.72	1498.81	2788.63	444.53	2915.95	1079.38	1208.02	808.01	601.84	1882.71	1825.26	1100.04	741.98	1249.02	2676.13	905.04	2787.85	488.86	714.66	1354.14	1744.81	1133.75	458.31	1718.82	935.54	1698.64	1027.8	2059.46	319.51	641.84	872.89	2615.21	808.97	831.27	2104.29	777.01	913.76	2350.56	1324.42	609.2	1236.01	1893.93	634.44	2715.63	2786.74	1079.12		460.41	2974.34	1273.8	2253.54	266.72	2280.46	2158.86	1135.65	1159.7	837.86	2625.51	1940.58	406.87	775.77	813.55	2452.52	153.4	1110.26	638.8	2832.3	1694.94	2261.04	1613.64	1806.05	1223.4	2975.4	991.06	770.28	2250.83	1525.71	2972.74	1227.37	
1240.5	573.27	1423.78	2132.53	1316.71	1630.61	895.32	1289.13	845.19	1973.4	1807.75	1109.88	1314.33	1450.67	1889.44	2464.08	1899.3	2407.89	1963.4	1077.0	1979.45	2533.17	1350.3	2441.2	347.0	2463.06	1230.49	858.52	1210.75	1061.7	1422.65	1610.85	1400.45	1060.75	1370.0	2366.25	1302.0	2451.74	932.8	364.32	1794.06	1290.06	1509.71	447.68	1556.17	1317.65	1408.46	1486.46	1673.31	466.08	591.05	1321.34	2208.59	467.13	1088.54	1653.47	881.72	610.33	2094.64	1282.66	435.39	1243.63	1526.75	297.38	2270.7	2346.23	661.88	460.41		2555.1	1715.73	1953.2	292.88	2016.09	1734.13	1410.46	1093.81	1284.52	2240.45	1481.56	303.12	958.43	1078.23	2113.21	611.06	1231.23	687.12	2431.46	1234.89	1879.9	1416.12	1390.12	886.51	2580.34	1203.17	1216.38	1808.88	1344.86	2665.92	1678.04	
1386.56	2887.44	3630.58	554.48	3869.01	1007.92	2820.22	1275.73	2801.49	969.93	1690.8	2896.08	3829.44	3763.35	1767.32	214.85	1759.04	612.08	592.0	2746.32	1370.75	186.13	2066.96	788.38	2569.44	669.16	2897.43	1799.2	3464.42	3524.35	1380.56	1756.4	3923.72	3182.71	2863.55	1090.48	3856.75	884.17	3463.12	2560.74	4078.59	1362.22	3617.67	2936.4	1975.54	3492.01	1539.32	3908.42	961.0	3009.65	2515.04	3843.08	387.62	2557.44	3075.74	1018.43	2730.37	2100.56	1460.21	2403.29	2424.97	2539.28	1159.35	2595.79	512.0	400.22	1898.04	2974.34	2555.1		4018.17	1229.16	2846.36	1421.47	821.78	3916.0	2356.76	3809.65	518.42	1293.35	2589.97	3438.25	3085.79	924.43	3101.19	2825.32	2638.95	272.01	1509.87	803.7	1879.83	1168.44	1799.46	313.01	3675.57	3742.78	807.82	1960.62	1150.02	4029.17	
2635.28	1901.81	401.0	3704.46	1007.26	3011.41	1205.23	2865.05	1219.06	3192.03	2664.75	1183.26	1507.06	267.55	2677.85	3873.84	2690.88	3684.53	3448.19	1335.0	2983.12	3943.35	2104.34	3645.79	1521.87	4080.99	1242.33	2232.26	555.3	711.14	3106.05	2487.61	1481.0	838.63	1370.35	3448.0	1075.6	3616.54	955.26	1984.72	82.68	2939.08	489.84	1653.94	2295.38	538.68	2536.4	356.92	3058.47	1492.62	1510.68	752.16	3635.29	2074.39	967.35	3274.72	1297.58	1941.51	3025.95	1776.98	1632.07	1626.78	2864.13	1905.25	3850.65	3904.24	2224.46	1273.8	1715.73	4018.17		3041.14	1530.21	2983.45	3247.46	1571.1	1733.84	779.1	3587.86	3153.35	1522.28	1608.08	952.43	3312.63	1121.49	1323.35	1380.36	3827.63	2920.42	3234.57	2286.11	2890.55	2225.37	3949.04	1652.37	806.04	3386.62	2187.22	3715.53	121.43	
801.54	2458.65	2640.38	1293.39	3145.43	604.47	1850.6	1113.8	1848.37	269.65	467.09	1861.2	3254.74	2811.12	538.16	1023.14	529.92	697.25	923.64	1708.01	151.71	1078.69	947.27	613.94	1809.03	1684.6	1825.48	1099.24	2512.74	2691.15	1546.43	577.29	3334.12	2213.22	1749.71	423.79	3153.02	575.84	2709.45	2130.55	3088.49	1356.19	2589.22	2398.62	796.52	2502.51	554.91	3011.66	607.6	2408.26	1653.32	3049.07	885.87	2177.24	2073.96	1293.54	1757.82	1354.51	287.56	1290.85	1644.42	1440.04	562.23	2127.14	1404.09	1371.75	1361.03	2253.54	1953.2	1229.16	3041.14		2228.47	214.7	939.58	3354.0	1307.38	3022.93	710.74	1490.74	1848.11	2911.53	2089.51	314.24	2340.16	1746.16	1735.61	965.37	1529.99	549.6	758.6	909.3	1067.58	1024.54	3155.96	2962.4	1170.94	856.03	719.22	3078.0	
1531.16	462.24	1287.39	2416.4	1030.67	1922.57	934.85	1577.35	886.28	2259.18	2054.66	1147.97	1028.41	1273.98	2129.61	2756.81	2140.14	2698.6	2254.93	1154.25	2246.86	2825.86	1563.5	2728.73	483.8	2737.59	1280.44	1141.86	1074.73	838.5	1682.1	1854.62	1111.96	995.08	1440.49	2645.1	1012.79	2737.01	669.79	454.67	1611.42	1564.89	1399.66	232.74	1777.79	1201.6	1678.39	1264.8	1965.51	179.82	731.97	1056.08	2501.29	545.22	1067.16	1931.89	950.51	875.03	2356.2	1442.8	630.05	1376.89	1816.46	375.71	2552.87	2630.96	954.75	266.72	292.88	2846.36	1530.21	2228.47		2280.27	2024.95	1126.43	1262.91	1017.82	2532.85	1746.14	432.83	691.4	1051.58	2398.7	411.62	1299.52	778.92	2724.32	1495.37	2171.8	1651.45	1682.52	1166.69	2873.21	932.18	949.96	2093.59	1572.38	2944.44	1477.01	
941.98	2543.91	2582.75	1507.78	3156.85	802.89	1814.36	1291.33	1817.95	480.59	328.69	1800.28	3298.39	2763.84	364.92	1211.14	354.15	857.32	1138.32	1649.46	66.01	1262.4	879.72	740.77	1838.05	1896.99	1749.99	1181.68	2469.58	2680.53	1736.07	496.46	3373.68	2169.1	1656.49	475.79	3169.09	679.83	2719.47	2223.21	3026.09	1537.35	2518.81	2463.76	694.95	2446.94	611.31	2978.88	811.05	2459.66	1658.82	3044.06	1091.46	2277.78	2021.14	1498.19	1723.07	1407.28	89.0	1210.66	1673.96	1361.71	737.83	2212.6	1617.22	1582.39	1463.01	2280.46	2016.09	1421.47	2983.45	214.7	2280.27		1149.53	3399.15	1257.62	3020.12	905.06	1684.5	1880.72	2969.73	2038.37	497.04	2355.0	1669.23	1725.12	1153.01	1706.88	764.23	705.44	1090.95	1144.21	1195.61	3212.2	2961.99	1382.49	804.61	732.32	3028.15	
628.05	2076.21	2870.34	477.2	3049.35	374.23	2070.02	456.98	2045.11	712.2	1280.11	2174.95	3009.98	2986.96	1386.39	755.79	1383.58	853.8	234.08	2032.81	1083.66	820.95	1458.53	979.4	1765.36	890.02	2198.62	1015.33	2692.19	2720.01	697.4	1252.95	3103.65	2422.6	2196.94	1115.29	3036.08	1044.09	2647.64	1745.76	3312.19	591.49	2875.02	2116.01	1440.7	2733.83	930.82	3114.23	349.32	2187.88	1736.78	3030.19	506.35	1748.61	2332.22	370.0	1984.54	1308.77	1227.06	1759.71	1628.65	1876.57	512.64	1777.67	623.03	659.88	1080.08	2158.86	1734.13	821.78	3247.46	939.58	2024.95	1149.53		3097.62	1670.61	2996.02	629.05	620.74	1782.29	2620.77	2339.47	797.3	2289.39	2134.17	1869.64	735.85	764.39	416.45	1296.44	358.47	1024.71	895.64	2859.81	2928.74	236.54	1351.93	1351.66	3249.33	
2648.72	1045.02	1615.07	3443.82	564.02	3034.31	1810.52	2641.09	1776.01	3383.75	3158.02	1975.97	102.83	1446.33	3224.59	3845.84	3235.83	3814.7	3331.3	2052.31	3368.21	3913.52	2634.44	3851.53	1565.92	3715.82	2108.31	2267.42	1485.9	1045.78	2637.32	2956.32	92.2	1639.01	2286.5	3771.41	496.33	3861.99	829.67	1357.63	1642.17	2576.16	1784.63	985.43	2854.46	1629.21	2802.28	1216.15	3075.65	947.11	1777.49	821.93	3590.55	1374.4	1791.4	2944.68	1869.85	1999.56	3472.69	2445.43	1727.95	2342.41	2935.95	1320.24	3569.72	3659.81	2060.78	1135.65	1410.46	3916.0	1571.1	3354.0	1126.43	3399.15	3097.62		2289.65	800.16	3640.07	2715.0	1520.8	478.76	1768.51	3523.5	1105.21	2160.0	1763.55	3817.62	2464.21	3283.4	2746.49	2772.59	2293.01	3970.88	259.79	791.94	3130.46	2660.11	4070.66	1457.12	
1048.43	1663.86	1333.01	2147.8	1957.63	1361.38	560.02	1411.56	569.57	1469.71	951.16	555.64	2186.84	1507.46	986.43	2189.99	999.03	1962.94	1830.41	402.06	1252.62	2257.49	382.24	1914.37	780.86	2558.13	540.77	760.49	1212.05	1446.57	1810.37	761.84	2246.45	911.55	527.75	1715.76	1980.47	1882.99	1526.24	1430.1	1781.32	1588.69	1286.42	1489.32	595.63	1195.3	824.15	1722.5	1406.59	1422.45	531.52	1814.77	1969.17	1522.67	767.01	1823.68	471.27	643.12	1307.85	191.02	658.48	221.42	1204.76	1379.34	2293.36	2320.61	967.86	1159.7	1093.81	2356.76	1733.84	1307.38	1262.91	1257.62	1670.61	2289.65		1794.75	1888.4	1818.62	832.33	1926.45	783.13	1584.52	1188.69	469.13	526.64	2139.31	1663.2	1554.01	553.93	1347.46	724.56	2246.72	2149.7	1741.62	1863.1	454.58	1989.19	1773.05	
2442.33	1262.33	832.66	3412.1	242.17	2838.77	1245.83	2563.43	1227.73	3113.28	2735.06	1354.71	730.03	649.06	2779.34	3699.19	2791.77	3586.25	3218.94	1468.42	3002.8	3769.23	2172.46	3586.05	1248.88	3747.58	1471.81	2027.98	742.05	351.57	2699.37	2537.25	712.83	968.92	1644.66	3446.35	305.63	3577.09	351.76	1441.52	854.42	2574.52	1003.69	1049.21	2389.8	871.56	2473.86	422.21	2884.54	905.88	1369.76	40.0	3446.79	1510.47	1136.6	2937.57	1327.42	1726.95	3081.14	1911.84	1405.16	1782.4	2711.32	1370.83	3552.04	3624.21	1916.76	837.86	1284.52	3809.65	779.1	3022.93	1017.82	3020.12	2996.02	800.16	1794.75		3447.22	2762.09	1223.0	858.12	1113.44	3247.42	709.14	1538.63	1295.17	3661.01	2512.3	3082.58	2322.14	2642.06	2037.97	3801.02	875.13	68.15	3087.91	2225.68	3736.75	671.32	
1007.91	2647.11	3193.36	718.36	3530.73	611.66	2382.86	1047.85	2369.32	454.23	1173.36	2438.24	3547.62	3340.4	1248.91	315.63	1240.62	229.65	441.49	2285.95	853.0	376.97	1575.31	386.26	2198.37	1043.35	2427.7	1419.61	3039.5	3142.15	1321.0	1247.6	3637.16	2749.23	2380.39	627.78	3525.83	471.83	3109.3	2311.33	3643.89	1217.72	3167.06	2654.97	1468.53	3054.12	1064.25	3506.41	567.67	2705.59	2108.33	3478.25	223.01	2327.54	2630.39	969.03	2290.91	1720.31	948.13	1917.21	2043.41	2058.25	737.01	2332.51	784.66	720.15	1580.77	2625.51	2240.45	518.42	3587.86	710.74	2532.85	905.06	629.05	3640.07	1888.4	3447.22		1240.45	2225.86	3169.93	2642.37	408.88	2739.85	2352.76	2220.79	259.33	1392.84	364.73	1385.14	878.32	1409.54	361.19	3413.31	3382.08	767.29	1471.24	782.97	3608.22	
862.97	1670.0	2811.81	758.02	2768.48	886.49	2071.42	438.51	2034.62	1301.62	1733.54	2226.23	2637.9	2885.92	1846.29	1301.41	1846.85	1468.7	806.11	2106.7	1619.41	1355.98	1729.44	1599.88	1632.34	1002.88	2285.96	1060.06	2611.67	2538.39	87.21	1646.48	2736.55	2382.4	2332.21	1725.14	2742.59	1664.62	2411.32	1370.76	3226.64	231.14	2853.29	1773.9	1785.82	2684.8	1286.1	2958.37	888.05	1881.55	1695.08	2799.7	1081.12	1341.46	2332.12	280.8	2001.03	1273.08	1769.59	1958.05	1538.73	2039.77	954.08	1424.4	866.85	967.5	943.76	1940.58	1481.56	1293.35	3153.35	1490.74	1746.14	1684.5	620.74	2715.0	1818.62	2762.09	1240.45		1631.21	2238.41	2333.26	1403.62	2088.17	2237.51	1840.94	1297.66	253.29	1022.61	1614.13	606.07	1094.15	1457.09	2462.66	2693.99	496.86	1635.81	1970.91	3132.05	
1219.59	842.63	1192.82	2215.77	1310.25	1616.27	593.67	1365.78	543.74	1908.69	1638.25	807.37	1419.32	1254.78	1708.17	2476.31	1719.08	2371.36	2001.03	775.34	1852.2	2546.38	1132.86	2382.22	51.48	2574.95	927.37	806.31	986.22	938.04	1584.06	1436.86	1493.08	793.3	1068.32	2270.21	1311.48	2381.0	883.63	667.44	1596.15	1419.09	1257.83	657.01	1348.9	1074.29	1293.26	1341.46	1661.88	601.05	305.31	1255.19	2224.3	770.17	799.72	1763.52	578.73	508.33	1952.87	1015.2	207.17	960.08	1491.66	599.1	2359.34	2423.58	714.79	406.87	303.12	2589.97	1522.28	1848.11	432.83	1880.72	1782.29	1520.8	832.33	1223.0	2225.86	1631.21		1114.47	791.62	2045.83	514.25	929.0	385.22	2438.01	1399.0	1861.14	1229.3	1425.4	819.15	2578.43	1349.02	1157.16	1892.73	1146.61	2567.31	1502.28	
2186.07	569.94	1530.89	2965.16	704.49	2567.16	1508.62	2163.98	1466.81	2927.25	2745.9	1700.4	399.85	1415.41	2819.89	3370.58	2830.54	3348.78	2854.63	1748.05	2935.03	3437.96	2246.67	3391.59	1163.52	3240.19	1836.78	1816.15	1355.38	941.76	2161.56	2545.64	499.41	1424.0	2011.2	3324.45	646.3	3405.7	680.92	878.93	1688.35	2097.48	1687.28	517.72	2463.33	1503.61	2364.98	1261.11	2607.65	514.58	1397.84	894.56	3115.56	897.04	1552.19	2466.17	1551.08	1562.69	3046.45	2096.74	1317.77	2011.66	2474.04	843.13	3091.41	3181.17	1594.66	775.77	958.43	3438.25	1608.08	2911.53	691.4	2969.73	2620.77	478.76	1926.45	858.12	3169.93	2238.41	1114.47		1531.17	3067.26	801.48	1875.29	1412.57	3343.23	1987.02	2815.71	2341.31	2299.0	1844.88	3497.37	245.31	813.46	2651.72	2260.5	3624.14	1512.41	
1715.55	1513.23	552.95	2808.11	1319.49	2078.01	269.68	1992.99	299.92	2240.56	1725.0	250.87	1670.75	725.58	1747.4	2933.65	1760.34	2733.48	2528.07	391.49	2035.22	3002.66	1158.86	2693.36	764.23	3200.73	358.45	1331.54	436.32	767.57	2300.21	1541.91	1703.78	145.96	532.02	2498.85	1359.94	2664.59	939.67	1431.69	1003.53	2106.81	535.56	1268.25	1358.76	414.04	1585.81	957.05	2124.86	1132.64	638.38	1123.64	2700.12	1535.01	23.35	2412.39	356.04	1065.77	2084.98	846.22	805.73	701.62	1927.05	1355.34	2955.26	2999.35	1390.2	813.55	1078.23	3085.79	952.43	2089.51	1051.58	2038.37	2339.47	1768.51	783.13	1113.44	2642.37	2333.26	791.62	1531.17		2360.37	735.87	427.93	492.33	2885.93	2123.88	2293.55	1336.79	1988.79	1316.62	3003.27	1703.2	1074.59	2499.12	1237.55	2770.59	990.12	
888.47	2581.3	2913.17	1061.23	3354.74	560.97	2112.27	1092.48	2105.55	140.04	781.22	2140.16	3426.64	3075.61	848.07	714.58	839.03	386.8	711.0	1986.58	447.6	767.52	1239.9	338.92	2011.27	1427.27	2113.52	1256.96	2775.34	2924.95	1471.85	882.78	3510.57	2478.19	2047.36	322.02	3357.3	338.54	2922.74	2246.48	3363.22	1313.68	2870.86	2549.87	1104.09	2774.4	782.16	3263.67	539.42	2577.02	1881.77	3275.6	606.39	2280.45	2346.1	1167.23	2019.24	1539.68	539.71	1585.2	1848.85	1732.2	603.52	2253.72	1154.48	1106.68	1480.35	2452.52	2113.21	924.43	3312.63	314.24	2398.7	497.04	797.3	3523.5	1584.52	3247.42	408.88	1403.62	2045.83	3067.26	2360.37		2551.28	2035.46	1977.43	656.49	1493.86	382.15	1048.56	889.64	1234.34	710.3	3312.57	3184.81	1005.63	1142.51	593.33	3343.53	
1733.84	832.31	880.57	2712.55	805.35	2130.5	714.19	1862.13	675.88	2415.41	2088.98	899.55	1002.73	863.02	2146.06	2990.09	2157.86	2882.94	2510.97	956.06	2332.05	3060.13	1545.29	2888.97	542.44	3058.68	1035.77	1320.25	670.23	450.87	2031.61	1887.69	1058.42	643.61	1211.06	2763.82	814.26	2884.2	371.55	864.43	1202.13	1889.48	1002.29	575.88	1766.09	804.19	1786.53	875.56	2176.13	420.95	697.83	741.97	2737.66	956.73	755.91	2246.39	766.85	1020.53	2421.83	1340.49	702.67	1238.13	2004.97	784.55	2854.15	2923.07	1212.28	153.4	611.06	3101.19	1121.49	2340.16	411.62	2355.0	2289.39	1105.21	1188.69	709.14	2739.85	2088.17	514.25	801.48	735.87	2551.28		1076.7	662.22	2952.07	1843.87	2375.13	1673.59	1934.3	1331.79	3092.68	993.32	643.01	2388.43	1581.89	3058.24	1074.01	
1508.3	1752.07	926.74	2611.06	1738.27	1830.3	369.43	1849.8	415.41	1926.37	1346.0	185.97	2059.72	1125.88	1354.89	2656.63	1367.93	2418.08	2298.44	155.43	1674.06	2723.72	798.91	2358.9	884.3	3018.81	81.15	1181.79	854.16	1189.93	2219.83	1177.43	2101.17	573.89	141.06	2139.99	1775.14	2320.75	1340.15	1594.95	1360.78	2006.38	850.0	1531.0	976.0	797.52	1289.6	1375.82	1875.61	1421.04	657.14	1550.06	2437.8	1696.79	405.42	2267.73	352.37	985.29	1707.07	458.63	841.61	307.65	1673.8	1528.03	2757.2	2787.09	1329.98	1110.26	1231.23	2825.32	1323.35	1746.16	1299.52	1669.23	2134.17	2160.0	469.13	1538.63	2352.76	2237.51	929.0	1875.29	427.93	2035.46	1076.7		544.11	2605.35	2059.28	2022.14	988.34	1803.18	1153.32	2709.48	2069.11	1497.33	2320.32	893.01	2399.08	1380.07	
1254.93	1218.5	1001.0	2332.15	1442.08	1633.84	237.99	1506.36	195.49	1848.41	1442.34	435.78	1660.76	1124.46	1492.38	2499.23	1504.49	2334.45	2067.94	390.13	1708.91	2569.07	887.39	2315.88	340.21	2718.66	546.8	854.78	825.68	956.66	1808.18	1243.22	1719.82	554.59	683.12	2157.45	1461.12	2299.23	1006.81	1050.92	1443.26	1614.68	1018.46	1011.48	1107.77	865.43	1195.81	1288.4	1680.91	921.65	146.37	1318.94	2257.57	1152.95	491.71	1924.32	197.52	576.32	1786.06	685.72	324.14	601.82	1489.5	984.0	2479.02	2528.25	897.98	638.8	687.12	2638.95	1380.36	1735.61	778.92	1725.12	1869.64	1763.55	526.64	1295.17	2220.79	1840.94	385.22	1412.57	492.33	1977.43	662.22	544.11		2454.59	1632.71	1862.38	1027.98	1514.46	845.65	2581.38	1629.71	1237.79	2018.75	932.62	2444.81	1390.86	
1219.45	2806.43	3435.26	644.05	3734.72	825.11	2624.0	1187.77	2608.58	713.08	1430.24	2686.4	3727.58	3577.38	1502.97	58.14	1494.3	346.17	506.74	2534.78	1103.96	118.6	1832.3	526.27	2413.33	882.16	2679.52	1634.96	3276.92	3363.45	1383.13	1506.93	3819.33	2989.42	2635.85	821.52	3726.75	622.27	3319.09	2473.47	3885.23	1319.89	3413.44	2832.73	1727.82	3296.14	1315.78	3735.79	778.54	2893.43	2337.47	3693.04	229.75	2480.85	2874.6	1017.01	2532.67	1937.45	1189.55	2173.13	2262.26	2312.98	965.11	2501.03	662.15	570.64	1769.6	2832.3	2431.46	272.01	3827.63	965.37	2724.32	1153.01	735.85	3817.62	2139.31	3661.01	259.33	1297.66	2438.01	3343.23	2885.93	656.49	2952.07	2605.35	2454.59		1484.52	593.06	1642.66	1045.31	1629.26	160.88	3584.44	3595.08	801.51	1727.62	904.76	3844.69	
806.49	1419.51	2587.07	992.36	2515.89	942.65	1867.18	416.33	1827.89	1376.94	1707.3	2033.1	2386.26	2652.87	1820.12	1495.2	1822.46	1615.11	979.61	1921.82	1644.19	1554.38	1621.67	1728.53	1403.7	1255.83	2102.26	905.28	2383.8	2294.63	187.77	1594.01	2484.68	2164.62	2162.4	1814.51	2489.62	1783.48	2162.05	1117.66	2994.92	180.42	2636.05	1520.61	1706.83	2462.78	1234.53	2716.59	956.62	1628.88	1486.34	2550.13	1259.48	1090.0	2124.24	494.5	1801.84	1078.72	1794.84	1816.5	1321.44	1884.22	970.22	1171.11	1109.76	1205.9	737.53	1694.94	1234.89	1509.87	2920.42	1529.99	1495.37	1706.88	764.39	2464.21	1663.2	2512.3	1392.84	253.29	1399.0	1987.02	2123.88	1493.86	1843.87	2059.28	1632.71	1484.52		1125.1	1529.61	621.09	945.4	1645.37	2212.87	2444.27	702.12	1536.58	2079.5	2895.38	
643.77	2301.8	2842.38	747.47	3166.42	249.33	2031.08	738.87	2015.52	300.03	954.11	2096.93	3189.99	2984.55	1049.49	640.1	1044.18	535.09	375.59	1946.11	700.16	709.19	1266.82	612.41	1833.7	1148.95	2094.78	1054.88	2684.01	2778.52	1092.47	979.46	3278.59	2396.38	2060.02	702.76	3161.96	659.76	2744.59	1965.33	3292.25	944.77	2822.24	2299.34	1191.92	2703.29	735.83	3145.68	208.12	2345.63	1747.16	3113.67	417.08	1987.42	2282.46	785.86	1939.87	1355.71	834.23	1600.49	1679.1	1735.66	373.98	1982.53	865.92	847.85	1222.65	2261.04	1879.9	803.7	3234.57	549.6	2171.8	764.23	416.45	3283.4	1554.01	3082.58	364.73	1022.61	1861.14	2815.71	2293.55	382.15	2375.13	2022.14	1862.38	593.06	1125.1		1082.39	547.53	1045.12	721.0	3059.86	3017.39	633.91	1159.75	955.07	3251.98	
752.97	1978.32	1885.11	1760.32	2468.07	938.87	1108.95	1175.92	1112.76	945.01	415.5	1104.0	2644.32	2061.38	478.87	1696.62	489.8	1433.2	1408.79	951.33	698.72	1761.14	191.64	1370.61	1182.21	2177.37	1067.28	709.66	1765.64	1979.45	1632.26	215.24	2713.6	1465.17	999.91	1162.16	2484.21	1334.16	2031.31	1686.15	2331.82	1403.87	1830.77	1856.16	179.04	1748.01	365.94	2273.52	977.95	1826.73	976.46	2344.87	1497.42	1759.97	1320.32	1537.62	1017.64	819.56	760.43	536.86	1023.89	683.74	786.7	1657.46	1898.89	1905.66	1007.25	1613.64	1416.12	1879.83	2286.11	758.6	1651.45	705.44	1296.44	2746.49	553.93	2322.14	1385.14	1614.13	1229.3	2341.31	1336.79	1048.56	1673.59	988.34	1027.98	1642.66	1529.61	1082.39		1041.57	662.12	1735.08	2577.96	2265.51	1518.51	99.41	1435.83	2326.86	
302.55	1769.47	2515.46	819.32	2701.3	329.07	1719.11	206.31	1692.61	764.7	1127.82	1832.69	2682.3	2629.44	1240.45	1075.38	1240.89	1076.75	576.94	1694.17	1027.19	1144.01	1180.86	1159.04	1407.61	1217.87	1864.2	659.7	2335.4	2362.63	648.68	1049.12	2774.04	2068.35	1875.14	1205.6	2690.17	1200.65	2294.88	1434.2	2955.87	447.18	2524.08	1787.5	1204.88	2379.54	693.31	2755.81	352.14	1849.61	1380.06	2675.81	819.68	1449.23	1982.33	496.59	1635.24	950.64	1178.05	1454.75	1270.18	1560.58	353.41	1458.09	966.48	1013.97	730.25	1806.05	1390.12	1168.44	2890.55	909.3	1682.52	1090.95	358.47	2772.59	1347.46	2642.06	878.32	606.07	1425.4	2299.0	1988.79	889.64	1934.3	1803.18	1514.46	1045.31	621.09	547.53	1041.57		672.17	1198.41	2541.02	2575.02	517.22	1079.1	1482.21	2891.38	
412.98	1399.75	1845.8	1491.48	2128.81	804.2	1046.94	696.6	1020.77	1095.56	982.15	1166.28	2195.08	1967.08	1080.6	1670.48	1088.02	1552.28	1223.06	1033.16	1102.43	1740.65	702.28	1567.83	789.52	1886.56	1208.2	47.68	1670.19	1734.41	1086.58	805.44	2277.58	1397.91	1240.72	1479.83	2128.07	1571.99	1702.41	1080.53	2288.88	864.14	1851.93	1331.08	837.61	1709.14	533.03	2109.75	850.72	1345.9	716.45	2068.79	1422.95	1140.04	1310.24	1115.63	963.42	311.26	1226.86	871.27	634.0	945.84	673.37	1068.39	1638.64	1684.14	347.25	1223.4	886.51	1799.46	2225.37	1067.58	1166.69	1144.21	1024.71	2293.01	724.56	2037.97	1409.54	1094.15	819.15	1844.88	1316.62	1234.34	1331.79	1153.32	845.65	1629.26	945.4	1045.12	662.12	672.17		1765.14	2089.68	1973.09	1184.4	636.13	1779.47	2231.58	
1358.85	2963.13	3554.43	784.62	3879.3	962.25	2744.02	1345.79	2730.51	791.77	1491.46	2797.85	3880.2	3701.49	1555.12	160.7	1545.52	341.92	667.47	2645.3	1152.91	133.65	1926.24	500.99	2552.33	975.55	2785.06	1773.18	3400.61	3499.21	1542.8	1585.78	3971.39	3110.41	2733.48	813.0	3872.59	594.01	3460.98	2629.52	4005.0	1480.69	3527.22	2985.61	1807.61	3415.18	1422.96	3866.2	916.56	3043.55	2467.8	3832.53	389.31	2638.35	2991.18	1176.32	2652.04	2075.01	1221.19	2269.9	2399.08	2412.71	1094.93	2655.86	783.78	682.11	1918.6	2975.4	2580.34	313.01	3949.04	1024.54	2873.21	1195.61	895.64	3970.88	2246.72	3801.02	361.19	1457.09	2578.43	3497.37	3003.27	710.3	3092.68	2709.48	2581.38	160.88	1645.37	721.0	1735.08	1198.41	1765.14		3739.13	3735.48	960.49	1823.69	841.61	3969.29	
2431.13	793.77	1633.18	3196.27	670.55	2811.48	1707.42	2402.84	1668.26	3172.56	2984.6	1889.65	215.64	1490.62	3056.8	3611.1	3067.61	3593.24	3093.82	1949.05	3178.14	3678.2	2478.33	3636.77	1397.06	3462.05	2025.08	2061.21	1477.35	1042.93	2384.07	2783.86	311.01	1585.32	2201.81	3569.38	602.7	3651.01	794.48	1114.83	1728.94	2329.09	1797.39	762.92	2696.24	1625.08	2608.57	1296.3	2851.76	753.45	1624.98	905.65	3356.37	1124.77	1725.19	2696.4	1756.77	1805.74	3288.36	2315.42	1554.11	2223.69	2719.14	1083.41	3320.43	3412.04	1839.42	991.06	1203.17	3675.57	1652.37	3155.96	932.18	3212.2	2859.81	259.79	2149.7	875.13	3413.31	2462.66	1349.02	245.31	1703.2	3312.57	993.32	2069.11	1629.71	3584.44	2212.87	3059.86	2577.96	2541.02	2089.68	3739.13		846.98	2885.19	2495.57	3869.06	1546.39	
2376.68	1200.94	826.46	3344.2	253.14	2773.24	1196.34	2495.67	1176.48	3050.34	2679.09	1312.49	715.44	655.08	2724.89	3633.06	2737.26	3522.24	3151.94	1422.26	2943.93	3703.08	2117.98	3523.32	1183.73	3679.44	1432.25	1962.63	719.61	307.42	2631.36	2480.71	707.64	931.43	1606.57	3385.97	307.92	3515.1	283.64	1375.18	883.7	2506.37	997.09	984.59	2336.01	854.63	2412.46	451.69	2818.95	839.77	1309.07	106.23	3380.48	1445.05	1097.87	2869.46	1276.24	1661.95	3023.78	1862.38	1340.84	1735.03	2646.47	1304.08	3484.07	3556.39	1849.31	770.28	1216.38	3742.78	806.04	2962.4	949.96	2961.99	2928.74	791.94	1741.62	68.15	3382.08	2693.99	1157.16	813.46	1074.59	3184.81	643.01	1497.33	1237.79	3595.08	2444.27	3017.39	2265.51	2575.02	1973.09	3735.48	846.98		3020.02	2169.48	3677.03	703.29	
814.88	2093.04	3018.38	324.23	3124.04	609.58	2229.6	527.06	2201.18	933.77	1516.32	2348.6	3047.17	3122.9	1622.85	804.56	1620.09	996.83	325.86	2211.03	1316.8	859.62	1674.13	1144.02	1881.41	702.16	2381.41	1167.59	2832.83	2828.69	583.06	1484.86	3143.37	2573.32	2390.84	1315.77	3105.84	1218.66	2736.83	1772.88	3454.16	558.35	3033.49	2160.7	1667.89	2883.91	1154.67	3233.43	585.84	2247.5	1880.46	3123.47	589.48	1761.85	2493.48	216.11	2147.43	1446.36	1458.46	1963.97	1756.2	2074.35	741.97	1814.23	466.62	537.43	1178.52	2250.83	1808.88	807.82	3386.62	1170.94	2093.59	1382.49	236.54	3130.46	1863.1	3087.91	767.29	496.86	1892.73	2651.72	2499.12	1005.63	2388.43	2320.32	2018.75	801.51	702.12	633.91	1518.51	517.22	1184.4	960.49	2885.19	3020.02		1568.82	1531.28	3381.39	
782.65	1911.41	1786.24	1821.03	2373.91	1002.96	1009.76	1199.81	1013.98	1035.71	509.73	1005.56	2557.74	1962.03	565.1	1780.9	576.64	1525.91	1475.71	852.68	798.11	1846.2	107.94	1466.9	1098.6	2237.87	971.39	683.7	1666.23	1882.18	1648.81	312.08	2625.68	1365.77	909.8	1261.31	2390.97	1431.82	1937.54	1626.64	2233.29	1419.8	1733.23	1781.0	214.37	1649.0	429.69	2174.28	1043.92	1746.15	886.14	2248.08	1576.26	1703.84	1221.16	1575.54	918.58	758.98	858.59	446.23	942.89	590.41	847.93	1594.4	1961.57	1972.79	974.31	1525.71	1344.86	1960.62	2187.22	856.03	1572.38	804.61	1351.93	2660.11	454.58	2225.68	1471.24	1635.81	1146.61	2260.5	1237.55	1142.51	1581.89	893.01	932.62	1727.62	1536.58	1159.75	99.41	1079.1	636.13	1823.69	2495.57	2169.48	1568.82		1535.22	2227.58	
1468.25	3155.99	3314.92	1498.55	3863.27	1154.05	2544.23	1683.74	2546.21	725.83	1053.23	2532.48	3971.85	3495.99	1057.65	950.96	1044.89	572.55	1209.69	2381.77	738.24	963.97	1612.04	397.34	2528.22	1786.11	2480.05	1808.18	3201.24	3401.48	2044.1	1228.74	4052.05	2900.74	2380.32	299.71	3871.6	313.38	3426.82	2823.44	3757.6	1899.09	3249.06	3109.08	1423.14	3179.23	1274.12	3708.78	1130.76	3124.08	2368.5	3762.06	1000.95	2862.28	2753.43	1716.91	2452.44	2072.06	692.94	1941.0	2363.59	2092.0	1189.73	2825.98	1550.38	1469.63	2053.31	2972.74	2665.92	1150.02	3715.53	719.22	2944.44	732.32	1351.66	4070.66	1989.19	3736.75	782.97	1970.91	2567.31	3624.14	2770.59	593.33	3058.24	2399.08	2444.81	904.76	2079.5	955.07	1435.83	1482.21	1779.47	841.61	3869.06	3677.03	1531.28	1535.22		3760.45	
2643.49	1830.81	454.28	3701.25	894.15	3024.7	1231.35	2857.27	1240.42	3220.44	2712.87	1229.99	1395.55	268.17	2730.56	3889.77	2743.57	3711.65	3454.29	1379.06	3025.33	3959.55	2148.45	3678.59	1505.96	4071.99	1299.72	2235.9	569.17	643.69	3081.99	2531.71	1366.5	865.52	1437.03	3488.8	962.93	3652.28	874.65	1931.36	185.07	2921.37	571.83	1587.15	2344.83	583.67	2564.05	251.75	3071.77	1426.97	1515.14	642.22	3648.39	2018.09	1007.04	3262.84	1324.36	1940.76	3073.52	1827.9	1625.25	1679.02	2879.8	1852.72	3846.81	3903.56	2211.73	1227.37	1678.04	4029.17	121.43	3078.0	1477.01	3028.15	3249.33	1457.12	1773.05	671.32	3608.22	3132.05	1502.28	1512.41	990.12	3343.53	1074.01	1380.07	1390.86	3844.69	2895.38	3251.98	2326.86	2891.38	2231.58	3969.29	1546.39	703.29	3381.39	2227.58	3760.45		
