n: 150
deposito: 7
clusters: 30
factor: 1

xcoord[n]:
1357.0
2650.0
1774.0
1307.0
3806.0
2687.0
43.0
3092.0
185.0
834.0
40.0
1183.0
2048.0
1097.0
1838.0
234.0
3314.0
737.0
779.0
2312.0
2576.0
3078.0
2781.0
705.0
3409.0
323.0
1660.0
3729.0
693.0
2361.0
2433.0
554.0
913.0
3586.0
2636.0
1000.0
482.0
3704.0
3635.0
1362.0
2049.0
2552.0
3939.0
219.0
812.0
901.0
2513.0
242.0
826.0
3278.0
86.0
14.0
1327.0
2773.0
2469.0
3835.0
1031.0
3853.0
1868.0
1544.0
457.0
3174.0
192.0
2318.0
2232.0
396.0
2365.0
2499.0
1410.0
2990.0
3646.0
3394.0
1779.0
1058.0
2933.0
3099.0
2178.0
138.0
2082.0
2302.0
805.0
22.0
3213.0
99.0
1533.0
3564.0
29.0
3808.0
2221.0
3499.0
3124.0
781.0
1027.0
3249.0
3297.0
213.0
721.0
3736.0
868.0
960.0
3825.0
2779.0
201.0
2502.0
765.0
3105.0
1937.0
3364.0
3702.0
2164.0
3019.0
3098.0
3239.0
3359.0
2081.0
1398.0
618.0
1878.0
3803.0
397.0
3035.0
2502.0
3230.0
3479.0
958.0
3423.0
78.0
96.0
3431.0
2053.0
3048.0
571.0
3393.0
2835.0
144.0
923.0
989.0
3061.0
2977.0
1668.0
878.0
678.0
1086.0
640.0
3551.0
106.0
2243.0
3796.0
2643.0
48.0

ycoord[n]:
1905.0
802.0
107.0
964.0
746.0
1353.0
1957.0
1668.0
1542.0
629.0
462.0
1391.0
1628.0
643.0
1732.0
1118.0
1881.0
1285.0
777.0
1949.0
189.0
1541.0
478.0
1812.0
1917.0
1714.0
1556.0
1188.0
1383.0
640.0
1538.0
1825.0
317.0
1909.0
727.0
457.0
1337.0
1082.0
1174.0
1526.0
417.0
1909.0
640.0
898.0
351.0
1552.0
1572.0
584.0
1226.0
799.0
1065.0
454.0
1893.0
1286.0
1838.0
963.0
428.0
1712.0
197.0
863.0
1607.0
1064.0
1004.0
1925.0
1374.0
828.0
1649.0
658.0
307.0
214.0
1018.0
1028.0
90.0
372.0
1459.0
173.0
978.0
1610.0
1753.0
1127.0
272.0
1617.0
1085.0
536.0
1780.0
676.0
6.0
1375.0
291.0
1885.0
408.0
671.0
1041.0
378.0
491.0
220.0
186.0
1542.0
731.0
303.0
1101.0
435.0
693.0
1274.0
833.0
1823.0
1400.0
1498.0
1624.0
1874.0
189.0
1594.0
1376.0
1693.0
1011.0
1100.0
1953.0
59.0
886.0
1217.0
152.0
146.0
380.0
1023.0
1670.0
1241.0
1066.0
691.0
78.0
1461.0
1.0
1711.0
782.0
1472.0
1185.0
108.0
1997.0
1211.0
39.0
658.0
715.0
1599.0
868.0
110.0
1673.0
1267.0
1332.0
1401.0
1320.0
267.0

color[n]:
#2a2dda
#eeed67
#f4c2d5
#24da22
#ae6e9e
#6d9ad0
#8ce4a1
#5a4b66
#21c93d
#5c2f79
#93c07e
#fd1bd8
#744d2f
#ca490d
#744d2f
#7edaab
#af32f0
#1b1b66
#5c2f79
#55e0
#4a313f
#5a4b66
#eeed67
#d89b1f
#af32f0
#21c93d
#744d2f
#1c4276
#1b1b66
#eeed67
#712c0f
#d89b1f
#ca490d
#af32f0
#eeed67
#ca490d
#1b1b66
#1c4276
#1c4276
#fd1bd8
#bd0a6c
#55e0
#ae6e9e
#7edaab
#ca490d
#1b1b66
#6d9ad0
#93c07e
#1b1b66
#93dd0b
#7edaab
#93c07e
#2a2dda
#6d9ad0
#55e0
#ae6e9e
#ca490d
#af32f0
#f4c2d5
#24da22
#21c93d
#93dd0b
#7edaab
#55e0
#712c0f
#7edaab
#55e0
#eeed67
#4ee6c6
#c8edd5
#1c4276
#93dd0b
#f4c2d5
#ca490d
#5a4b66
#c8edd5
#3fdb9a
#21c93d
#744d2f
#3fdb9a
#ca490d
#21c93d
#93dd0b
#93c07e
#2a2dda
#930be3
#b1a5f3
#1c4276
#bd0a6c
#af32f0
#930be3
#5c2f79
#5c2f79
#930be3
#930be3
#b1a5f3
#ca490d
#1c4276
#5c2f79
#ca490d
#1c4276
#eeed67
#93c07e
#6d9ad0
#5c2f79
#5a4b66
#712c0f
#5a4b66
#1c4276
#55e0
#c8edd5
#5a4b66
#93dd0b
#5a4b66
#3fdb9a
#24da22
#d89b1f
#f4c2d5
#ae6e9e
#7edaab
#c8edd5
#4a313f
#930be3
#93dd0b
#d89b1f
#93dd0b
#7edaab
#93c07e
#200cfe
#712c0f
#c8edd5
#d89b1f
#930be3
#6d9ad0
#7edaab
#ca490d
#d89b1f
#93dd0b
#c8edd5
#24da22
#5c2f79
#d89b1f
#5c2f79
#ca490d
#af32f0
#7edaab
#712c0f
#1c4276
#6d9ad0
#b1a5f3

Np[1]: 5 43 56 119  ;
Np[2]: 7  ;
Np[3]: 3 59 73 118  ;
Np[4]: 20 42 55 64 67 110  ;
Np[5]: 87 96 150  ;
Np[6]: 17 25 34 58 90 145  ;
Np[7]: 12 40  ;
Np[8]: 70 76 111 121 131 139  ;
Np[9]: 16 44 51 63 66 120 127 135 146  ;
Np[10]: 77 80 115  ;
Np[11]: 14 33 36 45 57 74 81 97 100 136 144  ;
Np[12]: 50 62 72 83 113 124 126 138  ;
Np[13]: 4 60 116 140  ;
Np[14]: 24 32 117 125 132 137 142  ;
Np[15]: 28 38 39 71 88 98 101 109 148  ;
Np[16]: 6 47 54 104 134 149  ;
Np[17]: 86 91 94 95 123 133  ;
Np[18]: 8 22 75 106 108 112 114  ;
Np[19]: 1 53 85  ;
Np[20]: 10 19 92 93 99 105 141 143  ;
Np[21]: 2 23 30 35 68 102  ;
Np[22]: 13 15 27 79  ;
Np[23]: 21 122  ;
Np[24]: 11 48 52 84 103 128  ;
Np[25]: 18 29 37 46 49  ;
Np[26]: 9 26 61 78 82  ;
Np[27]: 129  ;
Np[28]: 69  ;
Np[29]: 41 89  ;
Np[30]: 31 65 107 130 147  ;


c[n,n]:
	1699.55	1845.72	942.33	2709.41	1440.0	1315.03	1751.11	1226.93	1379.02	1953.65	542.65	744.45	1288.5	511.17	1371.31	1957.15	876.81	1267.47	956.01	2104.9	1759.07	2015.96	658.6	2052.04	1051.49	462.18	2478.0	844.62	1615.0	1136.87	806.98	1648.9	2229.0	1738.83	1491.36	1043.19	2487.11	2392.41	379.03	1641.04	1195.01	2875.23	1519.57	1646.8	576.67	1203.01	1728.66	861.98	2216.64	1523.5	1977.13	32.31	1545.39	1114.02	2651.01	1512.55	2503.45	1782.8	1058.65	948.05	2002.19	1472.76	961.21	1023.52	1443.42	1040.0	1690.91	1598.88	2350.78	2454.85	2217.77	1863.41	1561.89	1637.89	2456.5	1238.29	1254.19	740.76	1224.05	1723.77	1365.71	2029.07	1859.23	215.87	2526.12	2317.28	2507.65	1830.71	2142.09	2315.88	1361.81	924.88	2431.34	2400.62	2036.65	1832.88	2406.53	1271.77	1650.46	2595.66	2045.23	1674.9	1307.36	1224.6	1749.92	769.04	2047.85	2361.78	807.6	2388.91	1768.56	1954.93	2013.19	1150.4	806.04	740.56	1918.11	2649.77	1181.08	2426.66	2098.83	2415.32	2298.0	463.06	2170.08	1529.63	1750.4	2763.95	825.56	2546.51	809.59	2325.17	1540.12	1410.59	1848.67	379.33	1839.91	2471.1	1285.2	1282.79	744.77	1071.83	1932.9	2206.23	1404.3	1055.14	2490.53	1412.81	2096.79	
1699.55		1118.21	1352.74	1157.36	552.24	2851.4	972.28	2573.68	1824.22	2632.05	1580.83	1022.1	1561.12	1234.6	2436.58	1266.94	1973.03	1871.17	1195.76	617.45	853.99	349.48	2191.6	1348.82	2499.33	1244.43	1145.97	2041.42	331.31	767.32	2332.33	1803.44	1449.67	76.3	1685.68	2233.04	1090.56	1052.91	1477.54	713.74	1111.33	1299.14	2432.89	1892.52	1903.02	782.09	2417.85	1872.63	628.01	2577.45	2658.87	1714.82	499.38	1051.69	1195.89	1661.64	1508.41	988.71	1107.68	2336.08	585.85	2466.29	1171.05	708.45	2254.15	893.66	208.66	1335.15	679.22	1019.15	777.57	1124.98	1649.05	715.36	772.81	503.75	2638.75	1107.71	476.16	1919.62	2751.47	630.13	2564.83	1484.65	922.64	2739.21	1292.01	667.2	1376.11	616.37	1873.59	1640.5	733.88	717.86	2505.53	2024.97	1314.15	1783.41	1762.13	1212.45	389.01	2451.42	494.66	1885.25	1117.8	930.58	997.1	1335.06	1177.02	715.49	909.93	822.43	1138.67	606.17	1286.98	2335.34	1071.46	1156.06	2290.9	755.46	672.49	717.28	857.95	1901.65	888.96	2585.51	2556.41	1064.96	889.21	894.43	2269.04	743.27	695.07	2535.1	1861.23	2046.2	579.83	830.12	992.5	1774.13	2126.97	1565.39	2125.79	1253.17	2586.15	668.24	1293.1	518.05	2656.43	
1845.72	1118.21		975.98	2130.1	1544.7	2533.55	2043.0	2141.06	1075.21	1769.97	1413.48	1545.48	863.5	1626.26	1842.21	2349.19	1569.41	1199.55	1918.96	806.18	1938.24	1073.17	2012.41	2439.12	2165.14	1453.48	2233.96	1672.34	792.88	1575.45	2107.11	886.24	2555.49	1061.81	849.46	1783.86	2162.3	2145.18	1477.6	414.4	1962.78	2229.64	1744.62	992.46	1688.24	1640.84	1604.54	1466.58	1655.56	1940.9	1793.88	1841.09	1545.33	1865.31	2231.69	809.38	2626.46	130.14	790.21	1996.12	1695.83	1818.61	1897.65	1347.24	1555.23	1651.38	910.62	415.33	1220.7	2081.9	1863.5	17.72	763.47	1780.78	1326.64	960.13	2221.6	1674.57	1148.56	982.95	2312.92	1739.89	1729.07	1690.27	1878.26	1747.92	2396.87	483.39	2477.28	1383.15	1141.99	1195.98	1499.69	1570.66	1565.08	1055.96	2430.78	1100.1	837.26	2279.17	1057.17	1678.61	1375.45	1243.04	2171.69	1303.23	2112.58	2453.26	1809.53	1247.7	1991.02	1938.19	2242.24	954.71	1061.8	2178.08	114.54	2173.4	1768.68	1261.8	729.04	1481.37	1935.48	1763.19	2001.29	1948.36	1776.72	1657.25	1382.45	1278.4	2005.0	1754.08	1728.86	1954.22	851.0	2046.54	1695.64	1204.92	561.1	1082.81	1851.29	1025.9	1134.0	2368.56	2031.7	1311.71	2400.61	1492.16	1733.4	
942.33	1352.74	975.98		2508.49	1433.78	1607.4	1918.81	1262.13	579.62	1362.83	444.64	994.98	383.59	933.69	1083.99	2206.57	654.17	560.14	1407.21	1486.94	1862.62	1552.05	1039.96	2307.95	1237.24	689.26	2432.34	743.34	1102.67	1263.86	1143.82	757.53	2467.16	1349.97	592.7	905.4	2399.9	2337.45	564.68	921.83	1563.03	2651.87	1090.0	787.9	714.55	1350.59	1130.76	547.73	1977.89	1225.17	1389.95	929.22	1500.95	1454.0	2528.0	602.89	2653.61	950.27	257.62	1065.81	1869.68	1115.72	1394.86	1011.79	921.1	1260.39	1230.65	665.02	1842.55	2339.62	2087.98	993.31	642.23	1699.68	1958.81	871.11	1335.62	1105.96	1008.26	854.91	1441.4	1909.84	1281.58	846.72	2275.3	1597.2	2534.55	1135.04	2377.63	1900.16	602.1	290.39	2028.49	2045.44	1323.02	974.0	2496.82	497.0	746.55	2521.72	1564.17	1138.72	1234.55	557.61	1992.66	766.16	2125.18	2484.28	1250.02	1879.25	1898.57	1975.44	2177.65	775.43	163.64	1205.34	1070.08	2497.22	944.52	1909.27	1448.15	2009.72	2172.8	787.55	2134.05	1233.23	1241.39	2301.38	896.4	1989.59	1048.67	2093.92	1610.23	1183.81	938.19	1080.84	1771.31	1909.06	473.24	496.03	893.79	240.95	1083.61	2353.34	1238.63	1005.74	2527.07	1382.62	1439.06	
2709.41	1157.36	2130.1	2508.49		1273.03	3953.06	1166.14	3707.46	2974.3	3776.69	2701.14	1966.85	2710.96	2201.19	3591.32	1237.05	3115.97	3027.16	1918.14	1350.24	1077.97	1059.46	3279.11	1236.47	3615.01	2293.78	448.66	3177.5	1448.88	1585.05	3426.33	2924.64	1183.63	1170.15	2820.84	3376.13	351.14	460.9	2565.45	1787.54	1710.29	170.07	3590.22	3019.94	3014.74	1534.32	3567.68	3018.41	530.65	3733.65	3803.23	2731.49	1165.63	1726.28	218.93	2793.16	967.14	2014.26	2265.02	3457.91	707.49	3623.2	1898.47	1694.66	3410.99	1700.56	1309.96	2435.89	974.1	315.57	499.27	2130.51	2773.33	1127.16	910.04	1644.45	3768.38	1996.55	1551.51	3038.2	3882.95	683.06	3712.94	2497.14	251.92	3848.81	629.0	1649.01	1179.65	761.16	3025.93	2794.61	667.59	569.3	3631.3	3135.41	799.07	2938.04	2880.27	355.51	1073.06	3605.39	1406.84	3042.24	1285.04	1980.12	872.28	884.14	1992.12	964.17	1104.7	847.58	1047.2	1745.24	2433.88	3408.84	2046.74	140.03	3441.38	973.28	1435.41	682.45	428.55	2994.14	625.87	3741.71	3710.41	766.06	1893.21	1062.82	3375.86	414.57	1212.4	3688.22	2952.75	3082.29	878.21	1089.54	2139.81	2928.16	3242.22	2722.73	3229.25	961.43	3736.5	1669.24	655.08	1296.94	3788.4	
1440.0	552.24	1544.7	1433.78	1273.03		2712.11	513.08	2509.13	1989.42	2792.94	1504.48	695.66	1741.32	929.75	2464.23	819.7	1951.19	1993.05	704.16	1169.28	433.85	880.03	2034.45	916.18	2391.4	1046.87	1054.98	1994.23	783.99	314.23	2184.6	2054.35	1057.04	628.07	1910.18	2205.06	1052.49	964.75	1336.25	1132.76	572.15	1440.79	2509.59	2125.94	1797.05	279.71	2563.08	1865.33	810.06	2616.9	2820.13	1463.28	109.02	531.74	1212.44	1896.83	1220.02	1416.72	1243.6	2244.42	566.29	2519.29	680.69	455.48	2350.38	437.38	719.98	1650.71	1178.61	1015.83	778.12	1555.52	1901.58	267.87	1249.86	632.22	2561.92	725.28	446.43	2170.37	2678.04	590.34	2713.9	1230.47	1107.91	2979.83	1121.22	1159.74	970.76	1041.15	2024.34	1689.07	1125.38	1056.0	2721.1	2286.27	1065.89	1922.41	2021.15	1165.57	922.6	2572.12	201.16	1991.1	628.99	751.47	692.35	1050.56	738.22	1210.42	476.45	552.48	753.12	695.84	1313.59	2154.24	1526.08	1209.77	2294.03	1250.4	1221.1	1114.26	858.0	1757.82	744.47	2624.74	2674.23	1476.2	643.13	1399.37	2146.07	908.01	189.91	2548.54	2159.1	1816.02	400.05	1345.62	1233.44	1918.21	2024.01	1672.85	2394.84	921.36	2582.43	444.5	1110.04	55.0	2853.72	
1315.03	2851.4	2533.55	1607.4	3953.06	2712.11		3062.67	438.62	1545.72	1495.0	1272.77	2031.81	1684.49	1809.05	860.47	3271.88	966.03	1390.72	2269.01	3089.0	3063.38	3111.93	677.69	3366.24	370.74	1665.98	3765.36	867.17	2666.01	2426.45	527.77	1856.48	3543.33	2869.94	1779.28	759.68	3764.11	3676.35	1387.63	2528.96	2509.46	4112.58	1073.53	1780.62	948.78	2499.82	1387.35	1071.19	3436.01	893.04	1503.28	1285.59	2811.25	2428.92	3920.11	1820.44	3817.87	2535.39	1857.37	542.12	3255.86	964.58	2275.23	2265.31	1182.9	2342.34	2778.37	2142.71	3423.87	3723.35	3477.39	2549.39	1882.14	2932.59	3538.61	2348.76	359.77	2049.18	2406.65	1849.29	340.65	3287.75	1422.1	1500.48	3746.79	1951.05	3809.72	2742.12	3456.75	3448.47	1482.71	1344.36	3573.75	3568.99	1745.3	1896.35	3716.24	1477.74	1891.19	3877.66	3130.84	1273.84	2552.09	1335.91	3064.93	1974.2	3352.57	3674.12	2122.62	3461.56	3076.49	3248.38	3326.49	2246.86	1603.27	575.01	2640.01	3909.56	820.31	3494.29	3053.92	3555.83	3560.68	958.95	3455.0	891.69	1267.11	3874.17	2070.29	3585.52	582.49	3550.09	2833.81	778.58	2047.73	946.85	3108.83	3505.29	2080.39	1496.59	728.96	1507.9	1941.09	3519.48	692.87	2287.06	3793.96	2676.9	1690.01	
1751.11	972.28	2043.0	1918.81	1166.14	513.08	3062.67		2909.73	2485.58	3281.64	1928.99	1044.77	2242.91	1255.63	2910.44	307.66	2385.94	2478.68	829.07	1566.43	127.77	1229.97	2391.34	403.1	2769.38	1436.37	797.6	2415.87	1261.41	671.7	2542.85	2563.83	549.65	1045.67	2417.23	2630.9	847.31	734.09	1735.82	1628.76	591.34	1331.99	2974.4	2633.04	2194.07	586.9	3049.19	2308.71	888.68	3065.88	3308.76	1779.28	497.68	645.78	1024.24	2405.27	762.27	1913.64	1744.8	2635.71	609.54	2975.05	815.55	908.87	2823.83	727.25	1171.22	2163.66	1457.57	854.06	707.68	2052.82	2411.8	262.61	1495.02	1145.21	2954.57	1013.57	957.49	2679.4	3070.42	595.42	3199.92	1563.02	1098.57	3484.85	773.63	1629.35	461.24	1260.41	2516.89	2158.09	1299.52	1194.72	3222.63	2796.06	656.21	2413.33	2531.53	926.7	1272.11	3050.98	709.46	2472.28	155.54	1185.69	320.76	611.58	950.59	1480.8	74.24	326.91	268.17	1205.72	1786.69	2490.36	2015.61	1056.9	2732.48	1517.07	1632.36	1295.37	752.19	2134.0	540.27	3073.53	3151.28	1625.74	1059.42	1667.58	2521.37	935.73	323.21	2987.31	2671.73	2128.58	458.05	1633.05	1745.82	2410.4	2414.99	2159.64	2905.11	459.03	3012.81	913.07	752.93	568.07	3350.93	
1226.93	2573.68	2141.06	1262.13	3707.46	2509.13	438.62	2909.73		1120.17	1089.69	1009.36	1864.98	1280.6	1663.88	426.82	3147.31	608.89	968.54	2165.59	2747.27	2893.0	2805.59	585.92	3245.74	220.52	1475.07	3561.64	532.3	2355.54	2248.0	465.03	1424.99	3420.74	2582.95	1357.0	360.88	3548.94	3469.57	1177.11	2177.18	2395.28	3860.84	644.9	1345.96	716.07	2328.19	959.69	714.66	3180.99	487.17	1101.36	1194.72	2600.63	2303.1	3695.64	1398.83	3671.94	2154.42	1519.18	279.66	3026.98	538.05	2167.11	2053.88	744.52	2182.62	2477.11	1739.5	3103.48	3500.44	3249.9	2156.19	1459.8	2749.25	3219.56	2071.27	82.66	1908.7	2157.29	1413.26	179.43	3062.29	1009.67	1368.85	3488.21	1543.9	3626.85	2389.62	3331.7	3150.19	1055.39	979.78	3277.65	3284.68	1322.3	1458.09	3551.0	1060.29	1461.42	3666.62	2820.33	849.15	2332.45	916.01	2933.49	1757.75	3179.3	3517.96	2006.66	3140.41	2913.46	3058.51	3177.59	1968.95	1291.02	597.0	2250.68	3676.99	388.03	3170.9	2705.05	3259.18	3334.64	783.53	3251.96	487.88	855.64	3560.87	1869.76	3251.38	421.38	3296.8	2650.92	359.35	1612.76	923.82	2894.98	3170.85	1726.48	1078.97	496.28	1125.2	1502.55	3368.55	286.12	2068.69	3613.75	2468.0	1282.34	
1379.02	1824.22	1075.21	579.62	2974.3	1989.42	1545.72	2485.58	1120.17		811.37	838.12	1572.19	263.37	1491.52	774.03	2778.11	663.13	157.89	1981.64	1796.71	2422.25	1952.85	1190.01	2879.16	1199.31	1241.61	2948.48	767.07	1527.04	1839.32	1228.34	321.85	3035.11	1804.66	239.04	790.68	2905.53	2853.53	1040.86	1233.36	2142.41	3105.02	671.26	278.87	925.43	1925.69	593.71	597.05	2449.91	865.79	838.47	1356.74	2047.28	2033.45	3019.53	281.44	3207.37	1120.62	747.57	1048.15	2380.09	743.5	1970.25	1584.12	481.09	1839.66	1665.25	659.89	2195.58	2838.78	2590.91	1087.91	340.92	2257.14	2310.45	1388.57	1202.82	1679.55	1550.17	358.18	1278.86	2422.31	740.86	1346.63	2730.4	1017.92	3066.14	1427.59	2946.14	2300.64	67.62	454.96	2428.01	2466.86	743.59	457.18	3042.23	107.52	349.5	3028.01	1954.65	636.23	1788.36	215.35	2565.75	1345.75	2675.08	3035.7	1821.79	2228.86	2461.08	2518.34	2740.02	1304.2	734.8	1341.5	1189.47	2980.1	732.61	2252.09	1736.52	2408.9	2674.18	1048.36	2660.35	873.22	740.6	2654.81	1475.87	2301.34	1113.5	2563.57	2171.32	886.14	528.55	1376.75	2301.79	2222.73	834.5	96.6	982.46	347.31	554.07	2910.67	968.0	1574.64	3060.95	1936.48	865.36	
1953.65	2632.05	1769.97	1362.83	3776.69	2792.94	1495.0	3281.64	1089.69	811.37		1472.92	2321.99	1072.39	2201.3	684.08	3568.28	1078.49	803.33	2715.36	2550.65	3223.92	2741.05	1504.9	3669.77	1283.59	1954.8	3759.76	1129.0	2327.82	2623.78	1456.7	884.96	3829.87	2609.49	960.01	980.3	3716.09	3664.83	1696.99	2009.5	2898.96	3903.06	471.31	779.94	1389.04	2710.69	235.98	1096.13	3255.49	604.75	27.2	1924.61	2854.52	2791.67	3827.93	991.58	4012.66	1847.11	1556.54	1218.57	3191.29	562.91	2707.33	2374.15	510.58	2610.48	2466.8	1378.74	2960.41	3648.61	3401.42	1778.34	1021.97	3059.98	3072.62	2199.39	1152.18	2415.87	2357.73	788.24	1155.14	3233.58	94.64	1991.53	3530.49	456.13	3877.03	2187.69	3740.27	3084.47	769.91	1144.29	3210.1	3257.13	297.48	734.8	3850.56	870.6	933.64	3838.56	2739.13	281.57	2592.45	814.41	3353.59	2116.24	3481.71	3841.94	2550.51	2991.48	3260.8	3327.01	3539.93	2113.55	1500.4	1599.11	1881.66	3786.81	835.15	3011.0	2482.2	3191.05	3484.46	1517.23	3471.53	605.19	235.75	3412.67	2247.26	3043.12	1357.19	3368.24	2971.89	730.44	951.32	1804.67	3112.47	2967.3	1639.76	875.36	1303.77	1122.03	695.63	3713.98	807.7	2368.57	3871.6	2740.76	195.16	
542.65	1580.83	1413.48	444.64	2701.14	1504.48	1272.77	1928.99	1009.36	838.12	1472.92		896.88	752.93	738.45	987.49	2186.61	458.42	734.99	1259.37	1839.91	1900.93	1840.43	636.97	2287.3	918.66	504.73	2554.08	490.07	1397.03	1258.61	764.2	1107.42	2458.2	1597.53	951.76	703.08	2539.87	2461.58	224.2	1303.32	1463.72	2856.49	1082.75	1104.19	324.72	1342.26	1239.65	393.29	2177.04	1144.41	1498.18	522.25	1593.46	1361.47	2686.31	974.92	2689.23	1376.54	639.61	757.45	2017.67	1063.88	1254.34	1049.14	967.65	1209.83	1506.37	1107.51	2156.52	2491.08	2240.6	1431.02	1026.64	1751.32	2270.37	1077.31	1067.7	969.15	1149.72	1181.12	1182.79	2052.93	1380.61	523.28	2486.04	1802.76	2625.05	1512.43	2368.1	2175.72	824.62	383.19	2300.98	2297.61	1520.57	1290.53	2557.46	731.32	1110.62	2657.87	1860.42	1204.79	1324.18	697.2	1969.95	754.05	2183.62	2529.75	1093.46	2194.47	1925.73	2056.05	2196.86	975.09	361.81	796.91	1502.41	2668.23	805.03	2228.23	1813.78	2283.05	2325.3	358.42	2245.02	1151.8	1292.89	2603.36	872.81	2326.01	690.61	2292.37	1653.98	1059.22	1309.08	636.3	1886.61	2246.41	878.93	741.62	546.16	531.92	1391.33	2384.73	1084.11	1061.64	2613.02	1461.73	1597.37	
744.45	1022.1	1545.48	994.98	1966.85	695.66	2031.81	1044.77	1864.98	1572.19	2321.99	896.88		1369.17	234.34	1884.33	1291.03	1355.13	1527.93	415.62	1532.81	1033.67	1363.74	1355.55	1391.35	1727.14	394.62	1737.63	1376.97	1036.39	395.38	1506.93	1734.05	1563.46	1075.89	1571.48	1592.81	1743.69	1650.66	693.54	1211.0	577.04	2133.55	1969.3	1777.2	1149.52	468.36	2086.04	1286.42	1483.29	2041.18	2348.5	768.16	801.62	470.47	1906.72	1572.99	1806.95	1442.28	916.1	1591.14	1259.35	1958.09	401.38	313.64	1835.51	317.69	1069.72	1467.0	1699.05	1710.47	1473.67	1561.35	1599.26	900.99	1794.89	662.87	1910.08	129.54	561.71	1839.51	2026.03	1285.33	2234.07	536.96	1790.13	2589.83	1778.09	1348.15	1473.58	1626.71	1587.81	1177.71	1733.47	1689.01	2312.94	1959.67	1690.19	1482.23	1714.46	1853.5	1399.15	2070.18	575.7	1509.34	1074.84	253.58	1322.41	1654.0	271.98	1735.96	1050.55	1217.37	1312.61	617.88	837.43	1466.47	1578.18	1905.41	1701.39	1775.6	1549.98	1718.9	1553.64	1090.81	1428.42	2048.6	2165.24	2077.3	167.07	1909.75	1479.33	1588.94	802.31	1954.86	1891.04	1121.45	1095.47	1840.64	1041.78	1484.07	1370.31	1225.99	2070.46	1503.67	1975.27	354.46	1762.68	669.99	2419.16	
1288.5	1561.12	863.5	383.59	2710.96	1741.32	1684.49	2242.91	1280.6	263.37	1072.39	752.93	1369.17		1317.19	985.09	2539.24	736.05	345.08	1783.78	1547.11	2175.03	1692.06	1232.97	2639.78	1321.41	1072.63	2687.83	843.1	1264.0	1608.08	1300.76	374.34	2792.47	1541.29	209.77	927.29	2643.7	2592.95	921.91	978.46	1928.67	2842.0	914.28	408.03	929.89	1693.55	857.03	642.91	2186.57	1095.54	1099.37	1270.98	1795.11	1819.45	2756.64	224.9	2956.06	890.71	498.21	1157.11	2119.24	974.34	1770.41	1350.03	725.0	1618.6	1402.08	459.2	1941.0	2576.44	2329.04	878.03	273.79	2009.17	2056.43	1131.72	1361.9	1484.02	1298.57	472.13	1450.62	2161.67	1003.72	1217.73	2467.22	1243.54	2808.09	1177.83	2704.1	2040.58	317.24	404.11	2168.25	2205.24	979.99	591.8	2787.92	245.33	366.56	2766.18	1694.81	897.39	1540.19	382.52	2329.05	1130.77	2422.87	2783.59	1629.06	1974.89	2215.49	2263.95	2493.82	1050.56	547.22	1394.83	975.2	2716.89	905.25	1999.23	1490.31	2149.15	2412.12	1036.36	2401.64	1103.31	1002.15	2401.41	1258.2	2053.91	1190.5	2300.2	1925.59	1096.35	562.58	1358.3	2044.49	1974.64	571.2	230.53	1043.79	225.27	702.1	2661.39	1171.09	1337.18	2803.42	1687.73	1114.35	
511.17	1234.6	1626.26	933.69	2201.19	929.75	1809.05	1255.63	1663.88	1491.52	2201.3	738.45	234.34	1317.19		1717.5	1483.5	1188.28	1426.01	521.31	1710.41	1254.62	1569.0	1135.82	1581.86	1515.11	250.32	1967.69	1197.01	1210.78	625.83	1287.36	1690.52	1756.94	1283.29	1525.74	1412.36	1975.97	1881.64	518.66	1331.82	735.61	2367.84	1821.19	1720.42	954.13	693.7	1965.99	1131.45	1715.83	1874.67	2227.16	535.76	1035.93	639.84	2139.95	1533.51	2015.1	1535.29	917.39	1386.65	1493.69	1799.81	517.35	532.35	1701.93	533.5	1261.11	1487.89	1905.63	1943.88	1707.85	1643.06	1567.8	1128.52	2005.14	827.11	1704.37	244.9	762.44	1788.49	1819.64	1519.62	2110.58	308.75	2023.42	2500.31	2002.09	1491.03	1668.03	1845.74	1497.65	1065.46	1955.57	1915.4	2219.63	1907.3	1907.49	1393.88	1677.18	2084.79	1602.4	1938.89	806.63	1399.83	1270.26	346.45	1543.84	1867.13	355.58	1943.09	1267.53	1445.52	1521.5	760.85	770.08	1239.86	1673.48	2139.38	1530.26	1982.22	1719.39	1940.51	1787.61	882.18	1659.31	1881.8	2029.35	2296.38	345.93	2111.98	1267.17	1822.23	1030.34	1780.12	1864.03	889.4	1329.35	2040.48	1087.37	1398.53	1167.6	1145.43	2016.45	1714.02	1793.33	569.23	1985.78	904.31	2313.08	
1371.31	2436.58	1842.21	1083.99	3591.32	2464.23	860.47	2910.44	426.82	774.03	684.08	987.49	1884.33	985.09	1717.5		3173.1	530.0	642.89	2238.0	2519.52	2875.29	2626.18	838.74	3273.99	602.61	1491.75	3495.7	530.01	2180.05	2238.75	776.05	1050.07	3444.07	2433.62	1011.77	330.85	3470.19	3401.46	1199.52	1945.67	2449.25	3735.71	220.51	960.4	795.77	2323.78	534.06	601.77	3060.67	157.2	699.5	1339.88	2544.55	2348.11	3604.33	1054.19	3667.42	1875.69	1334.59	537.45	2940.5	121.49	2234.79	2014.33	332.18	2196.16	2311.24	1428.53	2900.47	3413.47	3161.28	1855.75	1111.53	2720.46	3016.83	1949.03	501.28	1954.05	2068.02	1020.66	542.17	2979.18	597.45	1457.96	3359.21	1130.74	3583.23	2152.23	3353.88	2975.94	706.41	796.73	3104.48	3126.52	898.25	1051.57	3527.57	742.78	1091.47	3591.04	2635.05	426.28	2273.36	602.65	2956.29	1726.19	3152.98	3504.72	2072.78	2935.86	2903.29	3016.06	3177.46	1850.1	1164.14	919.07	1955.56	3576.53	190.71	2962.9	2467.51	3085.56	3246.39	910.43	3191.37	164.44	448.75	3361.91	1851.06	3027.59	682.07	3176.82	2624.98	112.2	1222.63	1158.73	2828.53	2947.59	1505.97	759.7	654.6	887.92	1086.69	3363.11	196.43	2020.37	3573.22	2417.45	871.09	
1957.15	1266.94	2349.19	2206.57	1237.05	819.7	3271.88	307.66	3147.31	2778.11	3568.28	2186.61	1291.03	2539.24	1483.5	3173.1		2645.02	2764.97	1004.3	1845.94	413.88	1500.83	2609.91	101.59	2995.66	1685.63	807.76	2667.89	1564.7	945.42	2760.57	2865.47	273.44	1338.43	2717.05	2883.78	889.1	776.46	1984.02	1934.82	762.51	1389.5	3247.35	2932.73	2435.33	858.53	3334.58	2572.77	1082.6	3329.54	3595.32	1987.04	804.18	846.09	1055.54	2706.16	564.87	2219.63	2041.87	2870.11	828.91	3242.84	996.97	1194.89	3102.18	976.95	1469.68	2470.36	1698.19	924.66	856.74	2358.79	2714.15	568.55	1721.48	1451.17	3187.54	1238.63	1262.01	2980.6	3302.57	802.38	3485.0	1783.86	1230.66	3782.44	707.16	1929.44	185.04	1485.2	2807.17	2436.38	1504.4	1390.1	3517.83	3097.85	541.3	2702.85	2833.97	932.48	1541.8	3331.98	1013.8	2756.03	216.9	1458.59	386.25	465.4	1150.02	1717.52	359.2	510.54	193.31	1509.04	2069.06	2696.96	2319.87	1108.67	2991.62	1751.37	1915.61	1503.35	873.72	2365.43	649.22	3337.05	3430.98	1806.79	1329.11	1898.72	2748.26	1101.84	629.86	3245.51	2976.64	2327.89	716.18	1872.57	2050.62	2700.68	2651.04	2447.48	3207.29	315.33	3266.23	1203.51	680.24	874.62	3643.04	
876.81	1973.03	1569.41	654.17	3115.97	1951.19	966.03	2385.94	608.89	663.13	1078.49	458.42	1355.13	736.05	1188.28	530.0	2645.02		509.73	1709.25	2140.83	2354.96	2197.54	527.97	2745.73	596.19	961.96	2993.57	107.42	1747.4	1714.77	570.17	983.87	2916.54	1979.28	868.77	260.25	2973.94	2900.12	669.86	1573.14	1919.27	3266.32	646.6	937.01	313.34	1799.04	858.15	106.78	2587.06	687.17	1101.49	847.21	2036.0	1818.14	3114.69	906.03	3145.12	1569.36	910.68	426.71	2447.0	613.18	1705.63	1497.65	570.2	1668.2	1870.23	1187.19	2494.6	2921.23	2669.4	1585.49	967.79	2202.88	2610.67	1473.34	681.49	1424.1	1572.96	1015.28	788.32	2484.06	983.89	937.36	2891.85	1461.88	3072.32	1786.14	2826.42	2543.01	615.57	378.99	2670.73	2680.31	1186.93	1099.12	3009.99	569.28	1007.0	3093.48	2211.85	798.6	1765.03	452.87	2428.35	1205.5	2635.62	2984.32	1543.78	2531.55	2381.13	2503.65	2653.55	1371.65	686.4	678.52	1674.8	3091.85	346.73	2562.13	2100.61	2652.18	2754.49	443.92	2686.36	694.44	873.91	2952.03	1327.72	2643.74	457.2	2703.21	2106.32	601.37	1191.61	755.28	2325.18	2563.22	1122.45	587.18	319.49	543.77	1179.0	2840.62	631.26	1506.73	3061.2	1906.32	1229.25	
1267.47	1871.17	1199.55	560.14	3027.16	1993.05	1390.72	2478.68	968.54	157.89	803.33	734.99	1527.93	345.08	1426.01	642.89	2764.97	509.73		1929.68	1890.75	2422.62	2024.2	1037.64	2866.44	1042.07	1176.01	2978.49	612.07	1587.92	1820.67	1071.88	479.12	3026.66	1857.67	388.9	633.88	2940.86	2883.46	949.15	1320.04	2103.56	3162.97	572.92	427.28	784.54	1907.56	570.63	451.45	2499.1	750.46	830.39	1243.29	2057.94	1995.45	3061.66	430.47	3213.05	1233.82	769.82	890.27	2412.13	629.36	1920.01	1570.87	386.38	1809.91	1724.11	786.8	2281.55	2877.11	2627.02	1213.25	491.8	2259.39	2397.34	1413.37	1051.08	1628.0	1562.7	505.67	1130.77	2453.41	721.44	1254.8	2786.83	1075.61	3087.47	1521.7	2937.02	2373.85	106.02	362.22	2502.02	2534.19	794.11	593.84	3054.35	100.18	507.38	3063.18	2029.03	584.07	1793.25	57.72	2550.37	1314.95	2683.67	3043.24	1766.81	2315.89	2458.71	2531.88	2737.78	1322.86	698.2	1186.97	1312.75	3025.96	582.69	2340.97	1834.91	2482.94	2711.18	910.76	2684.41	758.24	688.39	2742.57	1446.01	2398.03	956.88	2614.0	2170.29	754.78	684.32	1237.94	2322.9	2318.59	896.93	116.81	828.18	320.2	681.33	2913.21	832.48	1565.67	3080.85	1941.48	891.33	
956.01	1195.76	1918.96	1407.21	1918.14	704.16	2269.01	829.07	2165.59	1981.64	2715.36	1259.37	415.62	1783.78	521.31	2238.0	1004.3	1709.25	1929.68		1779.69	867.88	1543.96	1612.83	1097.47	2002.83	761.28	1608.42	1715.09	1309.92	428.44	1762.37	2149.56	1274.63	1264.22	1986.81	1929.62	1639.92	1533.28	1039.92	1554.41	243.31	2088.21	2342.06	2191.71	1465.79	427.24	2479.54	1652.55	1501.88	2395.11	2741.5	986.59	807.52	192.28	1814.31	1988.57	1559.12	1807.38	1330.12	1886.26	1235.42	2321.08	24.74	580.54	2219.84	304.65	1304.47	1873.44	1862.77	1626.75	1420.9	1933.9	2014.81	791.04	1942.56	980.2	2200.27	302.19	822.06	2254.63	2313.94	1248.32	2625.63	797.12	1785.51	2997.89	1602.34	1660.5	1188.72	1741.85	1994.3	1573.43	1829.21	1759.54	2719.42	2374.75	1481.02	1889.09	2130.08	1734.44	1584.39	2456.39	701.23	1907.53	802.95	664.85	1144.6	1427.49	165.92	1896.69	862.45	1089.8	1077.84	966.03	1247.48	1694.0	1939.19	1831.13	2050.13	1936.99	1812.98	1817.82	1489.75	1382.45	1317.42	2402.18	2548.18	2180.09	552.47	2082.4	1757.19	1590.74	707.85	2298.68	2306.21	1323.87	1051.5	2022.46	1442.71	1891.85	1671.06	1634.51	2485.46	1269.37	2309.02	620.85	1581.95	710.78	2820.43	
2104.9	617.45	806.18	1486.94	1350.24	1169.28	3089.0	1566.43	2747.27	1796.71	2550.65	1839.91	1532.81	1547.11	1710.41	2519.52	1845.94	2140.83	1890.75	1779.69		1442.19	354.32	2476.85	1918.3	2720.59	1645.52	1525.59	2229.65	499.63	1356.56	2600.96	1667.92	1994.62	541.34	1598.62	2388.04	1438.69	1446.27	1805.92	574.21	1720.17	1435.68	2461.33	1771.42	2159.49	1384.43	2367.19	2034.18	930.0	2639.6	2575.67	2112.73	1114.55	1652.47	1477.89	1563.38	1987.53	708.05	1232.6	2549.68	1059.82	2519.46	1755.07	1233.92	2271.72	1475.17	475.28	1171.96	414.75	1353.57	1171.77	803.13	1528.99	1319.22	523.24	883.7	2821.89	1640.16	977.2	1772.94	2926.11	1099.36	2501.19	1902.4	1101.5	2553.57	1710.09	369.36	1930.89	590.14	1858.59	1767.85	699.04	781.69	2363.2	1855.0	1782.19	1791.93	1620.02	1546.53	318.94	2427.89	1087.52	1922.1	1717.5	1369.25	1527.88	1824.03	1734.64	443.0	1498.84	1359.61	1695.61	959.54	1489.16	2635.42	710.0	1411.15	2409.32	460.49	85.59	681.32	1229.21	2193.46	1350.6	2647.48	2530.3	862.18	1375.32	508.06	2517.24	1009.52	1308.88	2628.05	1654.98	2405.71	1131.24	428.14	1021.97	1777.61	2364.42	1637.42	1937.61	1775.64	2694.99	1190.52	1719.69	1132.98	2529.2	
1759.07	853.99	1938.24	1862.62	1077.97	433.85	3063.38	127.77	2893.0	2422.25	3223.92	1900.93	1033.67	2175.03	1254.62	2875.29	413.88	2354.96	2422.62	867.88	1442.19		1103.71	2388.42	500.94	2760.43	1418.08	740.55	2390.23	1151.47	645.01	2539.93	2487.05	627.29	926.26	2343.74	2604.0	776.25	667.04	1716.07	1523.88	641.95	1246.24	2930.41	2559.46	2177.03	565.85	2993.12	2273.92	768.48	3029.63	3251.1	1786.03	397.56	677.56	952.44	2330.02	793.64	1808.43	1677.15	2621.83	486.56	2935.53	851.5	862.33	2775.16	721.13	1055.9	2074.84	1329.91	772.11	602.52	1947.51	2333.87	166.58	1368.16	1061.59	2940.81	1018.31	879.53	2603.25	3056.94	475.56	3143.96	1563.38	992.18	3413.59	748.64	1515.57	543.67	1133.93	2456.24	2111.07	1175.5	1072.6	3154.88	2718.73	658.0	2353.76	2453.28	866.95	1145.7	2999.37	634.87	2418.93	283.29	1149.68	289.21	629.5	972.77	1353.29	56.65	230.53	319.48	1129.12	1736.92	2494.26	1906.91	977.06	2700.51	1389.67	1509.24	1170.91	655.08	2123.92	457.19	3037.37	3100.78	1504.98	1028.12	1540.29	2512.76	821.77	252.61	2955.52	2587.96	2138.19	330.44	1505.39	1663.67	2349.95	2400.7	2102.62	2826.94	491.07	2984.6	860.76	731.52	487.92	3286.94	
2015.96	349.48	1073.17	1552.05	1059.46	880.03	3111.93	1229.97	2805.59	1952.85	2741.05	1840.43	1363.74	1692.06	1569.0	2626.18	1500.83	2197.54	2024.2	1543.96	354.32	1103.71		2467.66	1570.07	2751.27	1555.23	1184.4	2275.69	450.16	1115.66	2602.68	1874.93	1641.88	288.14	1781.12	2454.24	1103.06	1101.7	1764.05	734.54	1449.21	1169.28	2596.2	1973.09	2165.15	1126.35	2541.21	2093.21	591.65	2758.19	2767.1	2028.88	808.04	1395.33	1160.23	1750.71	1634.61	955.26	1295.53	2583.72	705.58	2641.89	1519.27	1050.82	2410.54	1242.7	334.55	1381.62	336.72	1019.72	823.57	1074.5	1726.26	992.71	440.62	783.33	2875.22	1454.04	806.62	1986.71	2984.86	745.03	2682.63	1803.53	807.65	2792.18	1363.58	590.4	1579.61	350.07	2009.29	1842.14	478.56	516.16	2580.93	2080.59	1429.73	1929.66	1829.39	1215.76	43.05	2588.94	843.48	2047.02	1383.47	1249.97	1174.86	1470.22	1526.27	374.39	1160.15	1008.05	1345.48	879.82	1516.43	2618.05	995.47	1100.43	2495.91	413.27	433.66	459.57	885.57	2178.12	997.16	2766.22	2693.44	763.22	1223.22	546.64	2530.69	683.34	995.47	2730.13	1894.48	2349.18	784.66	480.77	1127.46	1917.7	2383.12	1739.29	2172.4	1421.59	2788.93	1009.34	1371.92	853.23	2741.13	
658.6	2191.6	2012.41	1039.96	3279.11	2034.45	677.69	2391.34	585.92	1190.01	1504.9	636.97	1355.55	1232.97	1135.82	838.74	2609.91	527.97	1037.64	1612.83	2476.85	2388.42	2467.66		2706.04	394.37	988.72	3087.71	429.17	2028.77	1749.59	151.56	1509.4	2882.63	2214.95	1386.74	524.74	3086.57	2998.66	716.55	1937.1	1849.55	3439.82	1035.18	1464.91	325.6	1823.86	1312.38	598.36	2765.23	970.14	1523.69	627.25	2133.85	1764.19	3243.1	1421.88	3149.59	1990.17	1266.7	321.76	2579.82	957.1	1616.95	1588.58	1031.38	1667.98	2133.11	1661.94	2788.34	3046.3	2800.96	2029.47	1482.64	2255.79	2901.3	1692.72	601.91	1378.26	1737.71	1543.24	710.29	2611.24	1412.59	828.62	3076.42	1928.37	3133.62	2147.49	2794.95	2796.92	1143.53	835.54	2920.32	2909.21	1666.29	1626.08	3043.0	1093.22	1530.39	3199.99	2489.5	1227.26	1875.81	980.84	2400.03	1299.06	2677.48	3002.89	1460.32	2826.43	2402.91	2571.24	2656.67	1592.16	993.58	165.68	2109.25	3233.43	669.99	2860.86	2450.46	2902.8	2884.02	290.13	2777.33	974.5	1275.74	3230.76	1392.95	2961.31	167.8	2878.58	2156.97	841.34	1717.89	338.94	2431.45	2881.93	1503.03	1110.56	214.7	1017.99	1703.24	2849.39	809.83	1611.16	3118.2	1999.48	1678.89	
2052.04	1348.82	2439.12	2307.95	1236.47	916.18	3366.24	403.1	3245.74	2879.16	3669.77	2287.3	1391.35	2639.78	1581.86	3273.99	101.59	2745.73	2866.44	1097.47	1918.3	500.94	1570.07	2706.04		3092.67	1785.87	796.14	2768.0	1651.98	1047.0	2856.48	2964.8	177.18	1419.02	2816.89	2983.91	885.58	776.61	2084.01	2024.75	857.04	1382.62	3348.8	3032.62	2534.42	960.13	3436.1	2673.83	1125.65	3430.49	3696.81	2082.14	895.91	943.31	1044.79	2805.71	489.04	2309.35	2142.23	2968.23	884.78	3344.05	1091.03	1296.22	3203.76	1077.85	1553.44	2566.73	1753.79	929.72	889.13	2448.43	2813.22	660.56	1771.34	1548.25	3285.38	1337.1	1359.98	3080.07	3400.26	854.77	3586.54	1881.0	1250.64	3882.82	673.03	2013.76	95.52	1535.68	2908.42	2537.97	1547.29	1430.39	3618.59	3197.14	497.55	2804.15	2933.02	915.92	1610.35	3433.58	1111.8	2857.58	318.2	1560.15	421.41	414.36	1245.74	1771.46	448.39	567.08	229.51	1607.61	2170.62	2791.23	2407.51	1103.72	3092.27	1804.19	1989.75	1547.39	896.74	2463.41	676.14	3437.99	3532.57	1839.13	1430.62	1949.71	2845.47	1135.11	726.29	3346.05	3074.52	2421.32	787.11	1927.05	2148.53	2801.92	2749.45	2548.87	3306.45	282.31	3366.35	1304.52	645.0	971.17	3744.17	
1051.49	2499.33	2165.14	1237.24	3615.01	2391.4	370.74	2769.38	220.52	1199.31	1283.59	918.66	1727.14	1321.41	1515.11	602.61	2995.66	596.19	1042.07	2002.83	2720.59	2760.43	2751.27	394.37	3092.67		1346.3	3446.38	496.45	2303.68	2117.33	256.28	1516.48	3268.82	2514.78	1427.72	409.16	3439.56	3355.73	1055.87	2159.0	2237.51	3772.13	822.6	1448.06	600.27	2194.6	1132.9	700.82	3093.42	690.92	1297.34	1019.83	2487.1	2149.58	3591.4	1468.01	3530.0	2165.25	1488.3	171.48	2924.16	721.98	2006.13	1939.04	889.0	2043.03	2418.7	1777.98	3059.88	3395.11	3146.69	2181.13	1530.09	2622.43	3175.04	1995.68	212.23	1759.43	2064.22	1520.42	316.24	2957.66	1199.11	1211.8	3403.16	1733.12	3501.45	2372.2	3180.6	3090.51	1139.13	973.93	3216.58	3215.65	1498.04	1578.98	3417.33	1123.97	1548.12	3555.25	2769.08	1028.26	2222.98	985.66	2784.13	1644.26	3048.66	3380.2	1847.94	3097.42	2777.59	2935.52	3036.07	1893.35	1237.99	379.67	2270.91	3577.15	502.48	3129.66	2684.52	3198.47	3230.76	636.52	3135.88	692.77	1047.88	3512.29	1748.4	3218.69	248.02	3208.35	2523.63	558.46	1714.42	723.63	2783.82	3138.37	1710.02	1142.81	373.16	1139.25	1635.02	3228.26	496.89	1957.63	3487.08	2353.22	1472.9	
462.18	1244.43	1453.48	689.26	2293.78	1046.87	1665.98	1436.37	1475.07	1241.61	1954.8	504.73	394.62	1072.63	250.32	1491.75	1685.63	961.96	1176.01	761.28	1645.52	1418.08	1555.23	988.72	1785.87	1346.3		2101.47	982.35	1153.45	773.21	1138.24	1446.77	1958.08	1280.55	1281.95	1198.18	2098.24	2011.6	299.51	1203.6	959.31	2456.2	1584.12	1473.48	759.01	853.15	1719.16	896.91	1786.33	1648.8	1980.84	473.77	1145.28	856.74	2254.39	1291.52	2198.54	1374.83	702.64	1204.08	1591.94	1568.35	754.4	600.26	1458.66	711.11	1228.95	1273.77	1889.41	2057.58	1812.61	1470.82	1328.25	1276.69	1995.85	776.15	1522.96	465.72	772.14	1542.62	1639.14	1622.85	1864.7	257.5	2097.53	2250.04	2155.61	1383.82	1868.2	1860.43	1247.34	816.04	1978.03	1952.94	1969.44	1660.91	2076.05	1143.63	1435.27	2212.3	1583.92	1695.13	887.97	1150.55	1469.46	317.91	1704.99	2043.13	595.94	1927.58	1438.5	1589.23	1704.51	688.67	525.91	1115.07	1512.79	2245.29	1307.7	1965.16	1642.27	1961.6	1895.48	711.2	1790.92	1656.15	1787.27	2306.71	404.32	2084.36	1099.98	1897.99	1178.0	1560.74	1624.77	802.95	1442.85	2008.92	898.04	1148.39	982.94	896.0	1769.55	1894.62	1580.64	624.55	2141.62	1010.93	2063.99	
2478.0	1145.97	2233.96	2432.34	448.66	1054.98	3765.36	797.6	3561.64	2948.48	3759.76	2554.08	1737.63	2687.83	1967.69	3495.7	807.76	2993.57	2978.49	1608.42	1525.59	740.55	1184.4	3087.71	796.14	3446.38	2101.47		3042.26	1473.68	1342.43	3238.27	2947.63	735.04	1186.24	2825.21	3250.42	108.91	95.04	2391.01	1848.47	1380.28	586.86	3521.96	3034.71	2851.33	1275.19	3538.92	2903.25	595.59	3645.08	3786.82	2503.32	961.01	1417.78	248.72	2803.0	538.47	2108.41	2209.04	3298.72	568.68	3541.78	1591.88	1508.51	3352.39	1439.8	1339.33	2480.71	1222.62	189.18	371.25	2237.88	2792.87	840.87	1194.62	1565.15	3615.71	1741.22	1428.3	3064.12	3731.74	526.18	3688.09	2274.4	537.93	3884.21	203.0	1754.61	733.97	987.13	2992.99	2706.0	941.54	820.02	3646.82	3170.5	354.07	2897.27	2906.99	129.56	1212.23	3562.56	1230.01	2985.18	890.28	1804.5	478.88	436.84	1708.75	1225.6	750.33	524.83	626.04	1657.48	2332.66	3203.68	2168.14	310.93	3332.13	1246.97	1609.75	949.67	299.54	2812.61	310.56	3653.04	3666.84	1149.31	1698.09	1368.48	3201.01	527.0	938.03	3585.0	3006.67	2856.94	668.4	1373.21	2128.06	2889.97	3078.56	2662.3	3271.7	516.63	3623.86	1492.96	223.29	1093.99	3794.47	
844.62	2041.42	1672.34	743.34	3177.5	1994.23	867.17	2415.87	532.3	767.07	1129.0	490.07	1376.97	843.1	1197.01	530.01	2667.89	107.42	612.07	1715.09	2229.65	2390.23	2275.69	429.17	2768.0	496.45	982.35	3042.26		1826.0	1746.89	463.34	1088.46	2940.43	2050.75	975.56	215.96	3026.01	2949.41	684.11	1664.9	1931.98	3329.95	678.16	1038.84	268.0	1829.79	917.5	205.76	2650.15	685.25	1150.69	813.67	2082.26	1833.36	3169.95	1013.05	3177.08	1669.5	997.3	325.38	2501.42	628.21	1713.01	1539.03	629.47	1693.03	1946.09	1293.01	2577.36	2975.47	2724.23	1688.56	1074.87	2241.29	2693.13	1539.24	599.63	1437.44	1629.24	1116.63	710.63	2537.56	1034.53	929.09	2956.77	1528.73	3115.01	1878.1	2850.55	2619.23	717.42	478.04	2746.48	2752.54	1258.16	1197.33	3047.15	675.08	1112.51	3144.67	2291.31	847.45	1812.28	554.69	2451.8	1244.12	2673.47	3018.64	1550.78	2614.56	2414.24	2546.01	2683.96	1436.99	759.68	574.91	1776.85	3149.46	339.37	2645.81	2191.49	2728.07	2809.16	390.63	2733.69	691.89	913.93	3033.1	1362.23	2730.56	349.95	2766.08	2143.85	583.61	1295.58	681.62	2374.24	2650.09	1215.01	693.14	216.52	647.82	1274.1	2872.68	598.35	1550.84	3103.05	1951.02	1288.98	
1615.0	331.31	792.88	1102.67	1448.88	783.99	2666.01	1261.41	2355.54	1527.04	2327.82	1397.03	1036.39	1264.0	1210.78	2180.05	1564.7	1747.4	1587.92	1309.92	499.63	1151.47	450.16	2028.77	1651.98	2303.68	1153.45	1473.68	1826.0		900.88	2160.9	1483.59	1763.8	288.43	1373.25	2004.11	1413.86	1381.39	1335.29	383.5	1283.29	1578.0	2157.48	1575.73	1721.44	944.31	2119.74	1643.05	930.68	2314.36	2354.36	1624.55	766.2	1202.86	1508.97	1346.79	1837.18	662.8	846.89	2135.49	916.92	2199.33	1285.72	745.25	1973.97	1009.01	139.17	1007.62	759.68	1339.44	1103.46	800.76	1330.28	998.97	873.35	384.36	2425.41	1147.44	490.56	1598.92	2534.85	961.21	2264.39	1408.97	1203.54	2416.65	1622.97	376.03	1686.73	797.49	1580.3	1392.97	925.84	947.79	2188.68	1701.68	1644.45	1495.77	1440.96	1534.87	465.56	2160.65	649.49	1607.63	1397.51	870.27	1319.91	1663.29	1249.63	797.72	1205.52	1145.68	1450.8	464.8	1067.22	2182.2	755.55	1462.83	2047.0	832.12	513.73	907.06	1181.78	1740.49	1220.26	2322.41	2265.57	1208.61	876.87	938.24	2085.94	1041.72	957.55	2283.01	1533.25	1929.72	903.35	860.61	693.23	1484.9	1937.05	1295.23	1800.76	1575.81	2340.55	701.99	1624.3	736.15	2342.88	
1136.87	767.32	1575.45	1263.86	1585.05	314.23	2426.45	671.7	2248.0	1839.32	2623.78	1258.61	395.38	1608.08	625.83	2238.75	945.42	1714.77	1820.67	428.44	1356.56	645.01	1115.66	1749.59	1047.0	2117.33	773.21	1342.43	1746.89	900.88		1900.79	1949.68	1211.22	836.02	1795.01	1961.33	1350.32	1255.91	1071.07	1184.95	389.62	1753.41	2304.65	2009.13	1532.06	86.93	2389.69	1637.01	1122.56	2394.19	2650.78	1161.58	423.21	302.15	1515.33	1788.21	1430.62	1455.17	1116.22	1977.2	879.63	2303.74	403.73	259.42	2157.19	130.17	882.47	1600.59	1436.39	1319.76	1087.94	1588.84	1802.83	506.2	1518.81	615.33	2296.13	411.61	431.37	2062.31	2412.29	902.0	2539.99	931.97	1422.04	2850.66	1384.63	1264.89	1121.06	1324.53	1865.69	1491.26	1418.26	1357.46	2581.77	2181.48	1303.01	1760.82	1922.23	1458.98	1156.0	2386.6	272.87	1810.87	729.94	514.84	931.86	1271.91	430.41	1470.78	667.35	822.12	938.88	633.75	1123.86	1861.84	1579.7	1517.24	2061.15	1511.09	1393.71	1405.76	1165.91	1480.89	1033.59	2401.83	2485.76	1768.5	387.72	1655.47	1870.02	1221.94	407.38	2316.06	2079.66	1515.2	708.03	1594.66	1166.03	1759.36	1756.06	1504.43	2292.17	1126.12	2342.73	280.24	1369.87	302.69	2702.53	
806.98	2332.33	2107.11	1143.82	3426.33	2184.6	527.77	2542.85	465.03	1228.34	1456.7	764.2	1506.93	1300.76	1287.36	776.05	2760.57	570.17	1071.88	1762.37	2600.96	2539.93	2602.68	151.56	2856.48	256.28	1138.24	3238.27	463.34	2160.9	1900.79		1550.14	3033.16	2353.79	1438.87	493.28	3236.44	3149.03	861.55	2053.65	1999.76	3586.43	985.67	1496.41	441.52	1975.27	1279.62	657.86	2910.82	892.54	1473.51	775.99	2283.52	1915.04	3392.35	1476.19	3300.93	2092.12	1380.41	238.61	2728.28	897.27	1766.83	1737.55	1009.44	1819.53	2268.24	1742.72	2920.52	3195.58	2949.71	2123.88	1537.93	2406.99	3034.16	1831.61	468.27	1529.7	1882.21	1573.15	571.22	2760.05	1366.95	980.03	3221.85	1893.25	3284.97	2265.4	2945.61	2934.76	1176.11	915.63	3058.89	3050.18	1640.82	1647.49	3194.56	1138.17	1575.22	3350.17	2623.49	1185.76	2024.43	1014.19	2551.0	1446.83	2828.96	3154.41	1610.75	2958.5	2554.47	2722.28	2808.1	1730.41	1112.64	143.11	2207.2	3381.97	627.94	2992.37	2571.72	3041.22	3032.96	432.71	2927.83	895.91	1223.0	3365.88	1542.56	3089.82	115.26	3024.53	2308.15	760.07	1756.2	467.77	2581.09	3010.1	1613.35	1156.32	257.78	1094.93	1717.15	3000.85	715.59	1759.48	3269.61	2149.17	1638.11	
1648.9	1803.44	886.24	757.53	2924.64	2054.35	1856.48	2563.83	1424.99	321.85	884.96	1107.42	1734.05	374.34	1690.52	1050.07	2865.47	983.87	479.12	2149.56	1667.92	2487.05	1874.93	1509.4	2964.8	1516.48	1446.77	2947.63	1088.46	1483.59	1949.68	1550.14		3111.17	1771.11	164.83	1107.32	2893.94	2853.72	1289.68	1140.39	2284.9	3043.19	905.1	106.57	1235.06	2033.48	722.17	913.15	2413.62	1115.09	909.38	1629.47	2097.27	2175.91	2992.56	162.0	3254.17	962.51	834.43	1368.22	2381.2	995.9	2135.34	1690.27	726.92	1970.41	1622.24	497.1	2079.55	2821.47	2580.87	895.26	155.08	2320.47	2190.74	1427.29	1507.47	1851.66	1607.92	117.0	1576.03	2424.83	842.95	1588.95	2675.2	937.11	3082.27	1308.26	3024.24	2212.87	377.81	732.92	2336.8	2390.34	706.69	232.43	3077.33	416.44	49.04	3015.69	1869.73	805.18	1854.93	536.81	2659.49	1490.46	2720.69	3080.06	1997.31	2109.89	2530.8	2555.73	2806.47	1358.62	921.04	1662.38	998.89	2945.48	1037.43	2128.41	1598.17	2317.86	2661.35	1353.75	2674.67	1121.71	898.53	2529.32	1615.03	2158.26	1435.34	2523.22	2242.34	1159.65	209.24	1681.72	2326.62	2082.64	828.44	399.54	1303.36	577.52	342.6	2966.11	1246.49	1673.06	3080.06	1999.73	866.44	
2229.0	1449.67	2555.49	2467.16	1183.63	1057.04	3543.33	549.65	3420.74	3035.11	3829.87	2458.2	1563.46	2792.47	1756.94	3444.07	273.44	2916.54	3026.66	1274.63	1994.62	627.29	1641.88	2882.63	177.18	3268.82	1958.08	735.04	2940.43	1763.8	1211.22	3033.16	3111.17		1516.45	2965.75	3156.26	835.38	736.63	2256.74	2142.06	1034.0	1317.18	3515.51	3181.58	2708.63	1124.68	3596.94	2843.25	1151.94	3600.32	3856.97	2259.06	1024.25	1119.25	978.22	2953.2	331.81	2425.38	2294.31	3143.54	940.09	3512.59	1268.1	1455.86	3368.18	1248.38	1657.28	2702.11	1796.73	893.02	901.68	2563.98	2958.57	793.04	1803.02	1687.96	3460.94	1512.07	1503.39	3227.03	3575.94	904.49	3747.57	2057.05	1233.2	4034.06	578.31	2116.87	90.25	1570.49	3066.05	2702.2	1567.65	1447.15	3772.25	3343.2	396.47	2962.3	3078.17	842.61	1680.45	3596.79	1256.3	3019.24	488.63	1725.77	467.12	307.7	1422.43	1811.05	580.83	636.0	313.34	1752.55	2332.77	2968.33	2517.89	1045.76	3263.22	1841.37	2069.6	1569.9	892.44	2638.85	687.6	3607.87	3696.43	1837.55	1597.12	1982.4	3021.49	1143.41	868.89	3517.32	3214.84	2598.49	873.4	1966.67	2289.92	2959.54	2924.48	2708.08	3451.86	238.58	3538.72	1461.7	549.69	1111.83	3900.46	
1738.83	76.3	1061.81	1349.97	1170.15	628.07	2869.94	1045.67	2582.95	1804.66	2609.49	1597.53	1075.89	1541.29	1283.29	2433.62	1338.43	1979.28	1857.67	1264.22	541.34	926.26	288.14	2214.95	1419.02	2514.78	1280.55	1186.24	2050.75	288.43	836.02	2353.79	1771.11	1516.45		1658.13	2238.71	1125.46	1094.45	1503.82	663.83	1184.98	1305.9	2423.04	1862.35	1921.16	853.91	2398.27	1877.53	646.02	2572.3	2636.17	1753.01	575.54	1123.48	1222.01	1632.61	1565.67	933.13	1100.44	2349.99	634.83	2459.65	1239.49	762.77	2242.28	961.0	153.39	1295.95	623.29	1051.09	815.58	1067.81	1617.44	789.96	722.0	522.27	2649.47	1166.02	521.11	1886.69	2761.36	679.04	2544.18	1524.93	929.4	2704.86	1339.21	601.93	1444.21	583.01	1855.85	1639.35	705.39	701.87	2475.48	1989.95	1369.02	1768.0	1728.8	1246.43	325.14	2435.24	563.17	1874.0	1192.13	970.32	1060.39	1393.19	1240.32	660.4	982.41	885.9	1206.6	623.44	1292.97	2361.23	1010.34	1177.78	2291.99	699.88	596.25	687.93	893.46	1924.82	939.98	2580.37	2540.26	1026.27	937.36	834.76	2287.46	759.0	771.12	2533.74	1821.41	2079.79	644.11	767.87	970.46	1758.04	2143.4	1556.4	2089.19	1316.11	2586.99	721.44	1341.59	593.04	2628.56	
1491.36	1685.68	849.46	592.7	2820.84	1910.18	1779.28	2417.23	1357.0	239.04	960.01	951.76	1571.48	209.77	1525.74	1011.77	2717.05	868.77	388.9	1986.81	1598.62	2343.74	1781.12	1386.74	2816.89	1427.72	1281.95	2825.21	975.56	1373.25	1795.01	1438.87	164.83	2965.75	1658.13		1021.14	2775.29	2730.81	1128.63	1049.76	2125.33	2944.69	896.91	215.82	1099.47	1879.47	768.57	788.44	2303.53	1097.75	986.0	1472.76	1957.24	2016.21	2879.8	42.45	3116.83	906.1	678.8	1271.75	2257.15	975.74	1972.85	1535.81	708.84	1812.21	1512.42	436.58	2004.78	2704.82	2461.15	861.12	102.9	2177.27	2118.13	1288.07	1439.6	1688.29	1464.28	268.79	1517.26	2300.38	904.46	1426.33	2573.34	1070.63	2954.25	1232.23	2878.23	2124.57	306.2	584.62	2250.39	2297.25	821.91	388.95	2943.28	304.14	159.11	2897.47	1779.14	833.12	1709.82	443.4	2509.38	1329.37	2583.06	2943.25	1833.79	2036.71	2386.29	2420.26	2663.19	1214.69	756.21	1544.0	964.0	2835.64	970.16	2057.73	1533.86	2231.33	2542.79	1213.73	2546.68	1104.97	933.79	2460.37	1454.93	2098.15	1325.35	2414.97	2097.01	1123.71	357.39	1540.04	2194.59	2020.71	697.59	285.39	1186.53	419.9	500.01	2826.0	1206.37	1520.09	2951.06	1855.86	970.77	
1043.19	2233.04	1783.86	905.4	3376.13	2205.06	759.68	2630.9	360.88	790.68	980.3	703.08	1592.81	927.29	1412.36	330.85	2883.78	260.25	633.88	1929.62	2388.04	2604.0	2454.24	524.74	2983.91	409.16	1198.18	3250.42	215.96	2004.11	1961.33	493.28	1107.32	3156.26	2238.71	1021.14		3232.08	3157.21	900.07	1817.11	2147.58	3526.56	511.75	1039.76	470.94	2044.55	790.32	361.47	2847.29	480.42	999.36	1011.51	2291.57	2049.19	3373.79	1061.92	3391.79	1794.6	1162.98	271.15	2705.81	441.58	1927.86	1750.39	516.21	1908.67	2128.22	1386.39	2747.94	3180.04	2928.35	1799.23	1123.83	2454.03	2864.19	1733.58	439.16	1653.2	1832.08	1112.9	538.52	2742.6	887.86	1140.55	3152.09	1405.98	3326.22	2029.34	3066.36	2800.57	730.04	620.19	2928.48	2939.38	1148.93	1175.55	3260.45	718.49	1139.14	3351.32	2467.75	702.64	2020.98	578.02	2667.64	1456.36	2886.49	3232.76	1765.64	2784.65	2628.59	2757.28	2898.94	1631.89	946.16	630.83	1892.64	3351.48	147.05	2814.61	2344.97	2909.87	3013.4	580.92	2942.57	486.47	752.54	3206.51	1575.89	2892.97	384.44	2963.43	2356.87	370.6	1305.73	832.26	2582.08	2812.44	1366.62	737.36	327.2	764.71	1237.13	3087.34	382.46	1761.01	3314.62	2161.07	1154.67	
2487.11	1090.56	2162.3	2399.9	351.14	1052.49	3764.11	847.31	3548.94	2905.53	3716.09	2539.87	1743.69	2643.7	1975.97	3470.19	889.1	2973.94	2940.86	1639.92	1438.69	776.25	1103.06	3086.57	885.58	3439.56	2098.24	108.91	3026.01	1413.86	1350.32	3236.44	2893.94	835.38	1125.46	2775.29	3232.08		115.0	2383.72	1783.61	1418.11	500.59	3489.85	2982.96	2842.13	1287.86	3497.63	2881.6	511.43	3618.04	3743.06	2511.54	953.09	1448.02	176.98	2751.84	647.38	2038.17	2171.07	3289.17	530.31	3512.87	1622.23	1500.68	3317.74	1454.1	1277.42	2421.38	1123.93	86.37	314.67	2165.57	2739.6	858.24	1091.93	1529.54	3604.88	1755.31	1402.72	3010.03	3720.67	491.01	3646.11	2280.45	429.46	3829.28	310.91	1680.76	828.75	889.2	2951.75	2677.31	838.24	717.59	3595.85	3114.66	461.11	2857.64	2852.43	122.48	1128.82	3524.53	1217.24	2949.53	952.83	1795.39	537.27	542.0	1731.72	1125.47	793.33	550.15	701.67	1624.55	2306.07	3206.56	2093.04	219.58	3309.75	1145.63	1523.45	847.04	232.61	2808.25	322.87	3626.04	3629.12	1040.45	1693.94	1264.47	3195.52	432.11	952.5	3561.49	2946.63	2865.04	655.81	1271.37	2079.68	2849.73	3069.85	2626.73	3214.48	610.48	3602.75	1482.24	332.0	1087.37	3745.74	
2392.41	1052.91	2145.18	2337.45	460.9	964.75	3676.35	734.09	3469.57	2853.53	3664.83	2461.58	1650.66	2592.95	1881.64	3401.46	776.46	2900.12	2883.46	1533.28	1446.27	667.04	1101.7	2998.66	776.61	3355.73	2011.6	95.04	2949.41	1381.39	1255.91	3149.03	2853.72	736.63	1094.45	2730.81	3157.21	115.0		2300.09	1757.4	1308.86	614.47	3427.13	2940.52	2760.01	1190.5	3443.91	2809.48	517.76	3550.67	3691.89	2417.4	869.25	1341.81	290.72	2708.75	580.49	2019.11	2114.0	3207.36	473.94	3447.19	1516.08	1417.18	3257.43	1355.92	1247.7	2387.95	1156.56	156.39	281.77	2149.37	2698.91	757.65	1135.47	1470.12	3524.08	1657.42	1333.83	2970.27	3640.06	431.28	3593.1	2187.61	503.04	3790.44	265.2	1667.06	723.89	920.8	2897.99	2611.39	884.65	762.06	3552.49	3076.94	381.61	2802.24	2813.23	203.54	1130.87	3467.52	1137.4	2890.19	837.91	1712.97	422.39	454.96	1629.06	1161.76	681.74	444.54	587.82	1562.53	2238.22	3115.95	2080.93	333.42	3238.29	1185.11	1529.86	891.33	217.11	2722.56	222.34	3558.64	3571.81	1114.82	1607.82	1311.68	3110.7	460.68	853.7	3491.02	2913.98	2771.04	575.19	1311.94	2033.55	2794.95	2987.39	2567.3	3178.38	506.02	3530.23	1400.94	278.3	1002.69	3699.89	
379.03	1477.54	1477.6	564.68	2565.45	1336.25	1387.63	1735.82	1177.11	1040.86	1696.99	224.2	693.54	921.91	518.66	1199.52	1984.02	669.86	949.15	1039.92	1805.92	1716.07	1764.05	716.55	2084.01	1055.87	299.51	2391.01	684.11	1335.29	1071.07	861.55	1289.68	2256.74	1503.82	1128.63	900.07	2383.72	2300.09		1304.55	1250.12	2725.06	1304.16	1297.35	461.73	1151.92	1463.48	614.24	2049.29	1356.72	1722.29	368.67	1431.27	1150.13	2536.28	1146.81	2497.93	1422.07	687.53	908.62	1869.97	1281.17	1035.92	883.18	1191.79	1010.51	1430.45	1219.94	2090.87	2339.81	2092.13	1495.32	1193.37	1572.43	2201.77	982.93	1226.88	754.94	1021.18	1372.14	1343.09	1902.81	1604.76	306.2	2360.36	2021.7	2450.66	1504.36	2166.94	2086.76	1033.72	589.45	2208.77	2194.41	1739.49	1485.42	2374.05	935.98	1287.37	2499.4	1788.34	1428.92	1167.52	914.69	1768.12	588.64	2002.2	2342.05	874.25	2129.14	1737.33	1882.98	2003.97	884.41	427.52	857.83	1555.1	2523.51	1013.27	2164.9	1789.97	2191.52	2175.94	428.9	2080.61	1363.91	1516.57	2525.36	694.05	2273.37	812.35	2162.98	1473.99	1264.83	1484.4	600.81	1727.95	2195.31	920.36	944.45	687.88	713.54	1589.45	2193.93	1282.43	902.11	2437.21	1297.46	1819.8	
1641.04	713.74	414.4	921.83	1787.54	1132.76	2528.96	1628.76	2177.18	1233.36	2009.5	1303.32	1211.0	978.46	1331.82	1945.67	1934.82	1573.14	1320.04	1554.41	574.21	1523.88	734.54	1937.1	2024.75	2159.0	1203.6	1848.47	1664.9	383.5	1184.95	2053.65	1140.39	2142.06	663.83	1049.76	1817.11	1783.61	1757.4	1304.55		1574.51	1903.11	1892.16	1238.76	1614.35	1244.72	1814.7	1466.36	1287.0	2067.19	2035.34	1643.13	1131.08	1481.77	1867.6	1018.06	2220.68	284.89	673.75	1987.6	1297.78	1947.57	1531.8	974.34	1703.33	1271.88	510.47	648.4	962.65	1706.34	1477.28	424.06	992.02	1366.46	1077.98	575.64	2252.81	1336.41	753.73	1252.42	2355.57	1342.06	1953.63	1457.4	1536.98	2061.39	2002.96	213.21	2063.38	1075.04	1293.19	1197.44	1200.63	1250.19	1846.54	1347.94	2027.71	1222.03	1094.95	1903.16	730.22	1868.5	969.36	1349.71	1758.4	989.36	1702.29	2046.77	1461.53	996.44	1576.62	1528.33	1828.74	594.86	943.55	2099.3	396.74	1815.62	1835.51	1020.99	527.87	1181.58	1553.11	1661.41	1602.14	2075.1	1972.13	1422.97	1044.01	1082.15	1964.41	1392.68	1315.61	2053.98	1167.63	1902.63	1286.3	1002.03	450.82	1208.32	1810.18	1063.38	1442.06	1957.94	2120.79	935.34	2005.06	1080.85	2006.61	
1195.01	1111.33	1962.78	1563.03	1710.29	572.15	2509.46	591.34	2395.28	2142.41	2898.96	1463.72	577.04	1928.67	735.61	2449.25	762.51	1919.27	2103.56	243.31	1720.17	641.95	1449.21	1849.55	857.04	2237.51	959.31	1380.28	1931.98	1283.29	389.62	1999.76	2284.9	1034.0	1184.98	2125.33	2147.58	1418.11	1308.86	1250.12	1574.51		1879.93	2542.64	2335.59	1689.16	339.25	2663.03	1856.22	1326.34	2606.43	2925.49	1225.1	661.04	109.22	1594.05	2122.92	1315.83	1843.58	1452.65	2116.66	1049.24	2527.57	234.55	623.4	2411.82	320.26	1252.12	1967.38	1750.68	1410.93	1218.66	1976.43	2143.46	589.63	1820.14	1003.31	2432.45	495.21	820.99	2394.11	2546.79	1056.36	2811.11	1027.13	1595.13	3160.21	1364.8	1651.51	947.3	1606.3	2160.81	1754.72	1682.19	1601.8	2885.07	2514.22	1239.57	2055.13	2261.35	1507.78	1491.38	2646.86	636.97	2085.94	559.65	798.31	910.09	1184.79	389.58	1782.27	630.35	869.52	835.41	1014.02	1409.33	1934.5	1968.95	1616.02	2263.38	1822.18	1763.71	1672.58	1282.31	1611.82	1097.66	2613.68	2741.43	2031.06	670.6	1971.42	1990.87	1406.2	520.63	2514.49	2428.42	1565.48	863.88	1917.69	1531.81	2056.19	1899.47	1798.01	2625.29	1026.5	2528.85	654.53	1343.73	595.99	2994.36	
2875.23	1299.14	2229.64	2651.87	170.07	1440.79	4112.58	1331.99	3860.84	3105.02	3903.06	2856.49	2133.55	2842.0	2367.84	3735.71	1389.5	3266.32	3162.97	2088.21	1435.68	1246.24	1169.28	3439.82	1382.62	3772.13	2456.2	586.86	3329.95	1578.0	1753.41	3586.43	3043.19	1317.18	1305.9	2944.69	3526.56	500.59	614.47	2725.06	1903.11	1879.93		3728.94	3140.33	3171.94	1703.56	3697.42	3167.68	679.85	3876.37	3929.4	2896.99	1332.99	1896.34	339.33	2915.72	1075.44	2117.85	2405.36	3613.78	874.64	3764.64	2068.54	1858.12	3547.98	1869.64	1440.11	2550.83	1040.23	478.26	669.01	2228.92	2893.44	1297.23	961.09	1793.14	3922.82	2165.0	1707.9	3155.53	4037.01	851.53	3841.41	2662.41	376.72	3961.07	746.58	1753.09	1320.46	847.38	3158.15	2939.48	738.07	659.06	3749.6	3249.87	924.56	3072.35	2998.0	474.89	1177.97	3738.38	1570.64	3179.86	1447.43	2141.4	1032.85	1012.14	2161.8	1024.6	1271.77	1015.72	1202.17	1894.68	2582.3	3571.14	2141.33	281.09	3588.69	1027.31	1519.54	755.17	598.57	3153.93	792.12	3884.43	3843.34	757.57	2056.95	1096.45	3534.19	564.16	1382.4	3833.93	3062.56	3247.14	1047.34	1134.3	2271.07	3061.92	3399.09	2862.1	3341.3	1103.46	3883.94	1831.74	774.32	1463.56	3908.84	
1519.57	2432.89	1744.62	1090.0	3590.22	2509.59	1073.53	2974.4	644.9	671.26	471.31	1082.75	1969.3	914.28	1821.19	220.51	3247.35	646.6	572.92	2342.06	2461.33	2930.41	2596.2	1035.18	3348.8	822.6	1584.12	3521.96	678.16	2157.48	2304.65	985.67	905.1	3515.51	2423.04	896.91	511.75	3489.85	3427.13	1304.16	1892.16	2542.64	3728.94		806.76	944.9	2390.96	314.84	689.95	3060.6	213.49	489.04	1489.19	2583.3	2438.46	3616.58	938.21	3724.05	1791.82	1325.46	747.88	2959.66	109.38	2336.78	2068.51	190.34	2273.61	2292.6	1329.57	2854.17	3429.1	3177.66	1756.83	990.25	2771.37	2969.85	1960.63	716.59	2049.83	2095.55	857.48	745.5	2999.83	381.37	1582.57	3352.36	912.01	3620.56	2092.0	3425.28	2946.04	606.11	820.56	3074.3	3104.79	678.03	871.18	3575.48	670.14	950.32	3611.71	2601.53	205.79	2313.76	549.86	3030.61	1789.84	3201.72	3557.86	2176.14	2888.37	2961.93	3057.59	3239.08	1865.43	1196.18	1127.93	1859.09	3584.02	365.3	2913.14	2403.66	3055.23	3262.4	1068.69	3222.31	219.33	240.79	3315.02	1918.47	2967.8	885.93	3176.12	2678.23	296.64	1058.17	1341.9	2859.18	2888.68	1468.74	683.94	837.9	867.52	893.41	3420.94	385.91	2070.01	3612.19	2460.46	653.76	
1646.8	1892.52	992.46	787.9	3019.94	2125.94	1780.62	2633.04	1345.96	278.87	779.94	1104.19	1777.2	408.03	1720.42	960.4	2932.73	937.01	427.28	2191.71	1771.42	2559.46	1973.09	1464.91	3032.62	1448.06	1473.48	3034.71	1038.84	1575.73	2009.13	1496.41	106.57	3181.58	1862.35	215.82	1039.76	2982.96	2940.52	1297.35	1238.76	2335.59	3140.33	806.76		1204.29	2093.86	615.78	875.11	2506.36	1018.27	804.62	1625.73	2172.5	2226.39	3084.33	232.14	3331.67	1067.17	893.29	1305.21	2467.27	900.45	2178.42	1750.12	632.92	2024.01	1714.71	599.62	2182.3	2911.43	2669.28	1001.6	246.89	2392.97	2293.92	1503.03	1428.06	1891.69	1679.96	79.31	1492.27	2510.69	736.61	1600.59	2771.12	855.64	3166.16	1410.28	3094.05	2312.7	321.5	722.72	2437.15	2488.94	613.16	188.43	3157.25	384.1	155.59	3104.94	1968.79	700.2	1925.62	484.29	2724.82	1538.19	2797.91	3157.95	2036.52	2212.94	2602.08	2634.57	2878.92	1430.37	951.0	1613.7	1105.27	3038.47	960.3	2231.89	1702.39	2418.17	2750.36	1327.06	2758.52	1024.69	792.63	2633.19	1664.99	2263.23	1381.19	2616.74	2312.83	1068.54	267.15	1655.49	2407.82	2187.37	909.39	369.94	1255.17	585.12	296.08	3041.35	1156.5	1734.97	3163.35	2071.6	768.6	
576.67	1903.02	1688.24	714.55	3014.74	1797.05	948.78	2194.07	716.07	925.43	1389.04	324.72	1149.52	929.89	954.13	795.77	2435.33	313.34	784.54	1465.79	2159.49	2177.03	2165.15	325.6	2534.42	600.27	759.01	2851.33	268.0	1721.44	1532.06	441.52	1235.06	2708.63	1921.16	1099.47	470.94	2842.13	2760.01	461.73	1614.35	1689.16	3171.94	944.9	1204.29		1612.12	1171.03	334.52	2493.42	949.42	1411.51	545.67	1890.8	1593.87	2992.54	1131.49	2956.33	1664.67	942.43	447.39	2324.8	896.09	1465.27	1342.85	882.72	1467.21	1831.08	1345.03	2480.76	2796.46	2547.47	1705.38	1190.4	2034.13	2594.77	1400.07	765.2	1197.98	1464.04	1283.59	881.4	2358.69	1294.4	671.87	2803.38	1774.96	2912.38	1825.52	2619.25	2500.09	889.13	526.31	2625.14	2620.41	1499.19	1377.81	2835.02	821.66	1250.39	2958.58	2185.08	1108.1	1624.96	731.75	2220.6	1047.09	2463.59	2801.93	1303.4	2518.67	2197.4	2344.62	2462.04	1298.11	671.8	490.81	1784.26	2977.44	605.18	2552.25	2130.74	2607.26	2631.72	131.05	2541.1	955.79	1178.71	2928.07	1155.59	2648.62	366.31	2608.25	1935.65	841.27	1444.17	453.62	2186.75	2568.84	1177.93	837.32	227.9	708.58	1465.43	2652.76	844.54	1359.91	2898.94	1757.38	1542.35	
1203.01	782.09	1640.84	1350.59	1534.32	279.71	2499.82	586.9	2328.19	1925.69	2710.69	1342.26	468.36	1693.55	693.7	2323.78	858.53	1799.04	1907.56	427.24	1384.43	565.85	1126.35	1823.86	960.13	2194.6	853.15	1275.19	1829.79	944.31	86.93	1975.27	2033.48	1124.68	853.91	1879.47	2044.55	1287.86	1190.5	1151.92	1244.72	339.25	1703.56	2390.96	2093.86	1612.12		2476.61	1722.12	1087.54	2479.39	2737.69	1228.67	386.52	269.61	1455.53	1872.18	1347.29	1518.77	1200.68	2056.3	833.66	2389.49	403.28	343.75	2243.93	166.83	914.11	1678.34	1439.34	1261.19	1035.42	1653.81	1886.01	434.94	1516.77	681.95	2375.3	467.46	492.49	2146.45	2491.41	852.74	2626.92	1001.83	1381.09	2936.43	1309.9	1313.86	1034.49	1314.62	1952.34	1578.02	1402.62	1335.37	2667.94	2265.45	1223.37	1847.51	2005.53	1393.98	1167.7	2473.46	298.2	1897.79	643.01	601.13	854.21	1190.14	461.52	1472.66	585.41	751.99	854.61	708.06	1210.79	1932.92	1640.85	1461.06	2145.57	1512.91	1426.04	1391.03	1111.11	1558.09	968.33	2487.02	2572.56	1753.5	473.2	1659.6	1946.97	1182.58	337.17	2400.4	2161.34	1582.15	656.22	1601.68	1244.76	1845.99	1835.2	1591.21	2376.04	1042.9	2426.25	361.25	1294.35	283.56	2789.13	
1728.66	2417.85	1604.54	1130.76	3567.68	2563.08	1387.35	3049.19	959.69	593.71	235.98	1239.65	2086.04	857.03	1965.99	534.06	3334.58	858.15	570.63	2479.54	2367.19	2993.12	2541.21	1312.38	3436.1	1132.9	1719.16	3538.92	917.5	2119.74	2389.69	1279.62	722.17	3596.94	2398.27	768.57	790.32	3497.63	3443.91	1463.48	1814.7	2663.03	3697.42	314.84	615.78	1171.03	2476.61		867.88	3043.6	505.66	262.46	1700.21	2626.55	2555.79	3612.93	804.27	3783.08	1671.42	1331.56	1045.35	2971.03	422.97	2471.45	2141.07	288.53	2375.15	2258.21	1200.4	2772.8	3431.56	3183.12	1614.44	843.09	2829.68	2886.41	1975.69	1031.26	2179.95	2130.36	643.67	1056.17	3012.95	150.84	1759.86	3323.27	616.0	3652.68	2000.57	3507.23	2887.37	545.98	908.34	3014.05	3056.42	365.15	622.77	3622.95	643.03	771.03	3620.11	2541.37	116.46	2362.99	579.25	3119.6	1881.19	3253.04	3612.92	2314.78	2804.95	3029.33	3099.88	3308.41	1887.92	1265.94	1419.7	1718.17	3573.78	651.7	2826.21	2302.05	2994.96	3266.63	1300.79	3248.14	509.14	181.01	3228.89	2012.18	2865.92	1174.04	3157.21	2740.84	608.94	830.87	1598.3	2887.89	2788.77	1427.92	649.35	1104.68	890.5	618.93	3483.59	696.41	2136.24	3646.7	2511.27	371.65	
861.98	1872.63	1466.58	547.73	3018.41	1865.33	1071.19	2308.71	714.66	597.05	1096.13	393.29	1286.42	642.91	1131.45	601.77	2572.77	106.78	451.45	1652.55	2034.18	2273.92	2093.21	598.36	2673.83	700.82	896.91	2903.25	205.76	1643.05	1637.01	657.86	913.15	2843.25	1877.53	788.44	361.47	2881.6	2809.48	614.24	1466.36	1856.22	3167.68	689.95	875.11	334.52	1722.12	867.88		2488.9	757.31	1120.41	834.2	1947.92	1753.28	3020.47	823.91	3065.77	1464.45	804.55	530.4	2353.58	671.74	1647.62	1413.77	585.92	1596.07	1766.79	1088.86	2388.94	2827.66	2575.62	1482.8	884.95	2119.84	2505.06	1374.56	787.91	1362.08	1479.32	954.23	894.03	2391.16	1002.31	898.2	2792.69	1457.26	2985.72	1679.36	2753.04	2439.25	556.82	273.18	2567.11	2578.0	1178.05	1045.29	2927.11	496.78	932.68	3001.6	2107.1	821.41	1676.69	397.71	2355.9	1124.54	2552.53	2903.41	1486.66	2425.82	2301.61	2417.66	2575.69	1273.28	585.71	756.17	1571.18	2996.35	429.09	2456.25	1993.83	2548.52	2660.76	463.21	2597.04	764.92	905.06	2846.74	1249.3	2537.3	547.95	2605.12	2024.01	683.23	1122.2	788.04	2235.05	2456.78	1015.67	513.64	401.29	442.45	1131.39	2761.42	721.17	1420.96	2975.15	1819.43	1234.89	
2216.64	628.01	1655.56	1977.89	530.65	810.06	3436.01	888.68	3180.99	2449.91	3255.49	2177.04	1483.29	2186.57	1715.83	3060.67	1082.6	2587.06	2499.1	1501.88	930.0	768.48	591.65	2765.23	1125.65	3093.42	1786.33	595.59	2650.15	930.68	1122.56	2910.82	2413.62	1151.94	646.02	2303.53	2847.29	511.43	517.76	2049.29	1287.0	1326.34	679.85	3060.6	2506.36	2493.42	1087.54	3043.6	2488.9		3203.06	3282.18	2236.79	701.57	1316.82	580.64	2277.42	1078.98	1533.14	1735.18	2934.43	284.68	3092.8	1479.69	1193.63	2882.15	1247.42	791.66	1931.71	652.05	428.23	256.7	1658.22	2260.69	744.73	651.09	1114.47	3243.04	1529.88	1029.64	2528.53	3357.18	293.29	3189.86	2001.85	311.33	3344.38	782.74	1172.74	1108.26	420.23	2500.28	2263.97	422.0	308.59	3119.21	2629.45	872.82	2410.96	2370.47	624.83	617.65	3078.83	909.84	2513.23	1038.51	1469.52	704.27	927.58	1548.1	662.71	815.12	578.32	897.66	1215.63	1903.94	2899.54	1583.54	532.16	2911.17	691.13	1014.19	421.74	300.96	2478.11	465.18	3211.12	3183.83	737.05	1392.43	830.48	2856.5	116.25	805.72	3157.68	2454.28	2583.55	465.65	817.44	1616.16	2401.47	2720.29	2193.09	2726.49	915.64	3206.34	1164.18	794.18	821.38	3273.52	
1523.5	2577.45	1940.9	1225.17	3733.65	2616.9	893.04	3065.88	487.17	865.79	604.75	1144.41	2041.18	1095.54	1874.67	157.2	3329.54	687.17	750.46	2395.11	2639.6	3029.63	2758.19	970.14	3430.49	690.92	1648.8	3645.08	685.25	2314.36	2394.19	892.54	1115.09	3600.32	2572.3	1097.75	480.42	3618.04	3550.67	1356.72	2067.19	2606.43	3876.37	213.49	1018.27	949.42	2479.39	505.66	757.31	3203.06		615.23	1491.87	2696.07	2505.24	3750.39	1139.65	3822.16	1982.16	1471.93	656.81	3088.0	122.3	2391.95	2168.13	390.22	2352.64	2447.08	1525.63	3026.12	3560.31	3308.21	1953.68	1193.75	2874.13	3142.27	2093.81	547.48	2111.25	2216.87	1070.43	555.7	3127.06	529.16	1614.01	3499.69	1060.53	3734.89	2270.97	3510.12	3108.23	798.91	941.31	3236.75	3261.9	854.49	1084.37	3681.04	850.34	1159.53	3739.17	2765.71	389.37	2425.02	717.54	3112.7	1881.07	3306.47	3658.95	2229.92	3061.02	3058.1	3168.3	3332.7	1995.73	1312.47	1035.17	2055.07	3721.31	346.16	3087.1	2584.88	3217.76	3393.26	1061.32	3341.64	8.06	374.13	3487.58	2006.47	3147.31	807.8	3319.09	2778.97	133.28	1271.38	1297.7	2978.58	3067.66	1633.52	865.89	797.26	1019.22	1104.06	3517.94	202.99	2173.46	3725.18	2569.68	798.9	
1977.13	2658.87	1793.88	1389.95	3803.23	2820.13	1503.28	3308.76	1101.36	838.47	27.2	1498.18	2348.5	1099.37	2227.16	699.5	3595.32	1101.49	830.39	2741.5	2575.67	3251.1	2767.1	1523.69	3696.81	1297.34	1980.84	3786.82	1150.69	2354.36	2650.78	1473.51	909.38	3856.97	2636.17	986.0	999.36	3743.06	3691.89	1722.29	2035.34	2925.49	3929.4	489.04	804.62	1411.51	2737.69	262.46	1120.41	3282.18	615.23		1948.0	2881.72	2818.24	3854.75	1017.33	4039.86	1871.73	1583.72	1235.18	3218.34	578.09	2733.54	2401.23	534.6	2637.28	2493.36	1403.72	2985.66	3675.53	3428.39	1802.14	1047.22	3087.16	3097.77	2226.54	1162.63	2442.14	2384.93	811.67	1163.03	3260.64	118.11	2016.34	3556.93	448.25	3904.19	2213.01	3767.36	3110.34	797.11	1170.79	3235.89	3283.21	307.18	756.09	3877.76	897.8	957.98	3865.53	2765.07	303.46	2619.65	841.21	3380.6	2143.09	3508.91	3869.14	2576.61	3016.66	3287.96	3354.21	3567.09	2140.73	1527.34	1616.11	1905.39	3813.55	853.73	3036.06	2506.99	3216.85	3511.41	1539.41	3498.66	615.34	250.78	3437.62	2274.11	3067.63	1374.88	3394.88	2999.06	742.47	972.62	1825.23	3139.63	2991.92	1666.53	902.56	1323.6	1149.16	714.29	3741.17	818.19	2395.69	3898.76	2767.96	190.07	
32.31	1714.82	1841.09	929.22	2731.49	1463.28	1285.59	1779.28	1194.72	1356.74	1924.61	522.25	768.16	1270.98	535.76	1339.88	1987.04	847.21	1243.29	986.59	2112.73	1786.03	2028.88	627.25	2082.14	1019.83	473.77	2503.32	813.67	1624.55	1161.58	775.99	1629.47	2259.06	1753.01	1472.76	1011.51	2511.54	2417.4	368.67	1643.13	1225.1	2896.99	1489.19	1625.73	545.67	1228.67	1700.21	834.2	2236.79	1491.87	1948.0		1568.24	1143.32	2674.88	1494.6	2532.48	1780.2	1052.61	915.8	2024.51	1441.72	991.52	1043.26	1414.56	1066.29	1702.59	1588.17	2363.18	2478.59	2240.69	1858.79	1544.6	1663.61	2469.49	1249.57	1222.22	767.87	1239.91	1702.98	1333.87	2051.79	1830.15	234.96	2546.62	2290.32	2534.5	1834.57	2172.01	2331.19	1338.43	903.27	2447.31	2417.95	2009.96	1811.38	2434.44	1249.37	1631.81	2620.55	2057.69	1645.56	1328.08	1199.77	1779.38	784.31	2074.94	2390.19	837.22	2401.35	1796.06	1980.66	2041.82	1160.36	796.17	711.53	1914.98	2672.94	1149.73	2438.92	2105.38	2431.17	2321.21	431.15	2195.07	1497.98	1720.51	2778.68	844.81	2557.64	777.6	2345.78	1565.66	1378.68	1830.15	353.64	1863.3	2481.9	1281.21	1260.67	712.49	1052.95	1910.77	2234.85	1372.12	1074.14	2517.54	1435.33	2068.75	
1545.39	499.38	1545.33	1500.95	1165.63	109.02	2811.25	497.68	2600.63	2047.28	2854.52	1593.46	801.62	1795.11	1035.93	2544.55	804.18	2036.0	2057.94	807.52	1114.55	397.56	808.04	2133.85	895.91	2487.1	1145.28	961.01	2082.26	766.2	423.21	2283.52	2097.27	1024.25	575.54	1957.24	2291.57	953.09	869.25	1431.27	1131.08	661.04	1332.99	2583.3	2172.5	1890.8	386.52	2626.55	1947.92	701.57	2696.07	2881.72	1568.24		630.17	1110.03	1941.84	1160.98	1415.96	1299.76	2338.14	458.35	2596.36	784.44	548.11	2420.72	546.11	685.17	1678.16	1093.74	913.21	672.46	1555.14	1943.35	235.65	1159.76	669.99	2654.84	834.01	497.11	2213.87	2770.84	483.74	2777.19	1334.78	998.89	3027.86	1038.82	1137.86	941.21	945.56	2084.78	1763.11	1025.2	952.16	2773.08	2328.24	996.45	1984.2	2062.34	1068.14	851.02	2639.48	271.27	2058.46	631.34	843.74	627.87	988.58	846.54	1124.24	447.76	474.61	713.47	744.64	1387.52	2255.86	1518.73	1104.94	2377.0	1163.87	1171.77	1014.73	753.4	1855.18	651.56	2703.96	2742.33	1375.58	740.96	1314.1	2242.64	799.01	196.06	2630.94	2193.21	1920.46	297.61	1263.58	1270.99	1979.16	2118.25	1738.01	2435.71	868.94	2667.07	531.99	1029.44	134.37	2909.29	
1114.02	1051.69	1865.31	1454.0	1726.28	531.74	2428.92	645.78	2303.1	2033.45	2791.67	1361.47	470.47	1819.45	639.84	2348.11	846.09	1818.14	1995.45	192.28	1652.47	677.56	1395.33	1764.19	943.31	2149.58	856.74	1417.78	1833.36	1202.86	302.15	1915.04	2175.91	1119.25	1123.48	2016.21	2049.19	1448.02	1341.81	1150.13	1481.77	109.22	1896.34	2438.46	2226.39	1593.87	269.61	2555.79	1753.28	1316.82	2505.24	2818.24	1143.32	630.17		1622.21	2013.94	1389.72	1747.59	1343.97	2025.22	1046.95	2424.93	174.27	521.02	2305.96	215.72	1180.38	1861.57	1705.53	1434.48	1229.52	1879.26	2034.72	599.11	1780.2	907.9	2342.12	396.22	730.35	2285.01	2456.96	1058.56	2704.09	937.8	1596.64	3051.2	1416.79	1566.75	1031.07	1572.87	2052.13	1647.6	1655.29	1581.14	2776.23	2405.12	1301.12	1946.45	2152.51	1543.34	1436.84	2540.64	564.96	1978.29	636.18	689.11	957.41	1251.43	307.12	1738.3	674.67	897.97	901.73	913.49	1300.65	1854.57	1874.6	1638.86	2163.06	1778.47	1692.32	1644.65	1297.82	1520.31	1125.4	2512.54	2635.67	2005.75	561.41	1926.09	1902.24	1403.18	517.6	2414.96	2320.13	1488.52	862.32	1869.35	1426.18	1947.41	1806.88	1689.26	2516.19	1094.51	2431.01	554.18	1397.1	546.44	2886.05	
2651.01	1195.89	2231.69	2528.0	218.93	1212.44	3920.11	1024.24	3695.64	3019.53	3827.93	2686.31	1906.72	2756.64	2139.95	3604.33	1055.54	3114.69	3061.66	1814.31	1477.89	952.44	1160.23	3243.1	1044.79	3591.4	2254.39	248.72	3169.95	1508.97	1515.33	3392.35	2992.56	978.22	1222.01	2879.8	3373.79	176.98	290.72	2536.28	1867.6	1594.05	339.33	3616.58	3084.33	2992.54	1455.53	3612.93	3020.47	580.64	3750.39	3854.75	2674.88	1110.03	1622.21		2854.58	749.22	2110.89	2293.18	3438.84	668.67	3643.23	1796.31	1654.85	3441.65	1622.19	1370.37	2512.16	1129.17	196.84	445.76	2233.67	2839.19	1029.38	1079.72	1657.07	3753.19	1922.79	1541.75	3107.79	3868.68	633.85	3760.32	2442.68	394.73	3924.47	412.88	1748.31	981.32	901.97	3067.93	2809.08	828.02	715.7	3697.42	3209.47	587.4	2976.06	2949.78	138.36	1180.64	3644.02	1368.8	3072.75	1128.05	1947.66	712.79	674.25	1903.2	1124.69	970.22	725.11	871.48	1754.66	2440.85	3365.89	2155.71	83.38	3447.37	1139.18	1563.45	840.19	361.02	2962.6	497.02	3758.41	3748.88	972.85	1850.28	1242.91	3348.61	477.62	1122.09	3697.67	3034.92	3028.01	812.76	1260.93	2188.36	2967.38	3220.43	2750.64	3306.91	764.69	3741.37	1634.2	439.73	1244.31	3850.43	
1512.55	1661.64	809.38	602.89	2793.16	1896.83	1820.44	2405.27	1398.83	281.44	991.58	974.92	1572.99	224.9	1533.51	1054.19	2706.16	906.03	430.47	1988.57	1563.38	2330.02	1750.71	1421.88	2805.71	1468.01	1291.52	2803.0	1013.05	1346.79	1788.21	1476.19	162.0	2953.2	1632.61	42.45	1061.92	2751.84	2708.75	1146.81	1018.06	2122.92	2915.72	938.21	232.14	1131.49	1872.18	804.27	823.91	2277.42	1139.65	1017.33	1494.6	1941.84	2013.94	2854.58		3100.38	868.29	672.6	1311.3	2235.38	1017.69	1974.18	1528.83	750.48	1808.42	1485.91	397.85	1970.65	2680.73	2437.98	820.82	62.17	2163.46	2083.66	1272.05	1481.41	1691.22	1450.53	274.61	1559.42	2278.77	938.24	1442.19	2545.11	1087.24	2934.03	1197.86	2865.99	2093.1	348.64	613.01	2218.56	2266.88	844.03	393.27	2925.41	344.06	143.76	2873.91	1748.01	871.28	1696.93	484.54	2499.5	1328.77	2566.67	2926.54	1837.01	2002.31	2373.19	2402.91	2649.49	1201.0	765.68	1579.93	923.89	2809.58	1012.16	2022.92	1497.79	2199.52	2519.27	1244.14	2526.39	1146.84	971.28	2425.39	1453.13	2061.7	1362.97	2388.38	2084.31	1166.11	337.73	1569.56	2175.77	1984.5	677.25	325.24	1223.05	443.42	503.99	2810.77	1248.82	1512.01	2931.2	1842.34	996.1	
2503.45	1508.41	2626.46	2653.61	967.14	1220.02	3817.87	762.27	3671.94	3207.37	4012.66	2689.23	1806.95	2956.06	2015.1	3667.42	564.87	3145.12	3213.05	1559.12	1987.53	793.64	1634.61	3149.59	489.04	3530.0	2198.54	538.47	3177.08	1837.18	1430.62	3300.93	3254.17	331.81	1565.67	3116.83	3391.79	647.38	580.49	2497.93	2220.68	1315.83	1075.44	3724.05	3331.67	2956.33	1347.29	3783.08	3065.77	1078.98	3822.16	4039.86	2532.48	1160.98	1389.72	749.22	3100.38		2497.09	2460.14	3397.62	938.59	3728.83	1549.71	1655.86	3568.24	1489.33	1715.88	2818.2	1728.81	724.21	823.73	2632.94	3099.62	954.15	1713.78	1828.76	3716.4	1771.47	1657.66	3371.04	3832.18	895.95	3933.89	2321.0	1075.55	4187.29	339.99	2163.95	394.01	1493.94	3243.59	2904.57	1464.37	1341.63	3933.91	3483.98	206.37	3142.07	3217.88	611.64	1668.59	3791.5	1420.23	3210.67	756.19	1941.24	533.78	174.77	1696.75	1736.4	764.17	699.92	494.37	1905.62	2530.13	3243.96	2575.47	827.51	3491.27	1761.46	2068.23	1470.49	783.96	2895.3	637.76	3829.87	3893.26	1687.61	1817.42	1890.91	3282.0	1037.55	1045.91	3746.25	3340.32	2878.15	937.16	1888.47	2425.93	3137.62	3177.01	2892.86	3590.23	304.51	3773.33	1654.24	316.18	1271.91	4070.14	
1782.8	988.71	130.14	950.27	2014.26	1416.72	2535.39	1913.64	2154.42	1120.62	1847.11	1376.54	1442.28	890.71	1535.29	1875.69	2219.63	1569.36	1233.82	1807.38	708.05	1808.43	955.26	1990.17	2309.35	2165.25	1374.83	2108.41	1669.5	662.8	1455.17	2092.12	962.51	2425.38	933.13	906.1	1794.6	2038.17	2019.11	1422.07	284.89	1843.58	2117.85	1791.82	1067.17	1664.67	1518.77	1671.42	1464.45	1533.14	1982.16	1871.73	1780.2	1415.96	1747.59	2110.89	868.29	2497.09		740.63	1994.75	1567.59	1860.17	1785.63	1232.0	1601.54	1534.7	781.46	471.02	1122.13	1958.4	1737.6	139.18	828.69	1651.32	1231.23	840.27	2233.71	1570.65	1026.28	1065.64	2328.97	1611.7	1801.19	1618.06	1762.34	1848.89	2269.64	365.3	2347.23	1273.6	1185.85	1191.48	1392.81	1458.93	1655.16	1147.05	2301.84	1133.65	914.17	2155.71	941.58	1739.23	1249.75	1273.23	2043.05	1204.98	1982.58	2323.77	1702.92	1151.03	1861.32	1808.23	2112.13	841.41	1017.99	2155.47	138.36	2054.01	1790.04	1167.87	636.05	1374.24	1810.41	1731.42	1872.96	1989.79	1839.57	1567.52	1277.47	1196.17	1993.59	1633.36	1600.22	1987.04	949.18	2003.16	1565.71	1120.2	502.51	1117.33	1838.94	1030.42	1231.08	2238.54	2061.44	1195.35	2273.06	1364.46	1821.35	
1058.65	1107.68	790.21	257.62	2265.02	1243.6	1857.37	1744.8	1519.18	747.57	1556.54	639.61	916.1	498.21	917.39	1334.59	2041.87	910.68	769.82	1330.12	1232.6	1677.15	1295.53	1266.7	2142.23	1488.3	702.64	2209.04	997.3	846.89	1116.22	1380.41	834.43	2294.31	1100.44	678.8	1162.98	2171.07	2114.0	687.53	673.75	1452.65	2405.36	1325.46	893.29	942.43	1200.68	1331.56	804.55	1735.18	1471.93	1583.72	1052.61	1299.76	1343.97	2293.18	672.6	2460.14	740.63		1317.23	1642.35	1359.33	1314.12	857.01	1148.53	1136.59	976.75	571.92	1584.97	2107.71	1857.34	807.93	690.85	1511.47	1701.21	644.35	1592.12	1039.97	802.66	946.26	1698.53	1683.7	1481.54	917.07	2028.64	1740.6	2321.17	886.29	2206.02	1644.21	786.79	546.78	1772.64	1792.04	1478.18	1065.67	2294.76	688.77	809.11	2293.38	1307.06	1353.72	1042.44	779.58	1832.57	665.45	1927.6	2288.25	1185.97	1621.7	1717.35	1770.93	1995.78	557.02	278.36	1430.24	870.62	2259.12	1200.39	1651.85	1196.6	1753.82	1941.6	997.32	1916.64	1479.99	1458.18	2043.77	785.29	1733.51	1290.67	1850.77	1427.43	1436.55	977.58	1262.53	1556.4	1653.02	239.59	682.25	1136.51	458.03	1176.53	2164.29	1493.67	841.76	2315.37	1190.23	1610.35	
948.05	2336.08	1996.12	1065.81	3457.91	2244.42	542.12	2635.71	279.66	1048.15	1218.57	757.45	1591.14	1157.11	1386.65	537.45	2870.11	426.71	890.27	1886.26	2549.68	2621.83	2583.72	321.76	2968.23	171.48	1204.08	3298.72	325.38	2135.49	1977.2	238.61	1368.22	3143.54	2349.99	1271.75	271.15	3289.17	3207.36	908.62	1987.6	2116.66	3613.78	747.88	1305.21	447.39	2056.3	1045.35	530.4	2934.43	656.81	1235.18	915.8	2338.14	2025.22	3438.84	1311.3	3397.62	1994.75	1317.23		2770.73	658.66	1887.97	1790.23	781.38	1908.46	2251.75	1611.9	2890.77	3242.94	2993.53	2012.21	1373.47	2480.42	3006.08	1832.34	319.01	1631.55	1906.42	1379.61	435.11	2805.0	1129.25	1089.82	3243.49	1657.22	3359.02	2200.81	3054.68	2924.12	990.49	803.28	3050.53	3051.4	1408.3	1445.32	3279.64	967.62	1397.65	3405.8	2601.01	949.17	2071.93	833.03	2656.8	1494.41	2909.04	3245.04	1727.76	2928.24	2641.03	2791.57	2903.27	1729.91	1068.89	381.62	2101.32	3422.8	394.59	2960.25	2513.27	3032.34	3077.91	504.95	2988.5	660.55	984.57	3344.03	1602.66	3048.36	154.31	3049.71	2381.83	525.41	1569.76	659.64	2633.94	2968.0	1538.55	986.36	221.14	970.44	1508.14	3094.7	488.67	1807.05	3345.35	2204.76	1401.03	
2002.19	585.85	1695.83	1869.68	707.49	566.29	3255.86	609.54	3026.98	2380.09	3191.29	2017.67	1259.35	2119.24	1493.69	2940.5	828.91	2447.0	2412.13	1235.42	1059.82	486.56	705.58	2579.82	884.78	2924.16	1591.94	568.68	2501.42	916.92	879.63	2728.28	2381.2	940.09	634.83	2257.15	2705.81	530.31	473.94	1869.97	1297.78	1049.24	874.64	2959.66	2467.27	2324.8	833.66	2971.03	2353.58	284.68	3088.0	3218.34	2024.51	458.35	1046.95	668.67	2235.38	938.59	1567.59	1642.35	2770.73		2982.6	1214.11	991.7	2788.01	998.35	787.69	1919.57	869.69	474.24	222.93	1701.38	2226.28	462.72	894.15	999.71	3084.71	1291.2	874.27	2497.88	3200.14	44.29	3120.0	1790.4	550.13	3318.19	706.17	1227.09	882.99	657.9	2425.06	2147.12	690.09	586.05	3078.94	2605.4	737.79	2329.92	2341.14	652.05	742.74	2996.06	704.05	2420.05	762.13	1281.82	473.77	769.66	1294.68	888.62	535.42	318.7	655.64	1094.28	1776.36	2706.19	1640.01	653.7	2781.21	922.53	1137.68	686.29	307.74	2297.37	305.5	3096.0	3100.52	1018.94	1189.22	1070.44	2682.2	357.05	530.46	3032.42	2445.6	2375.86	185.41	1043.76	1559.77	2322.37	2552.69	2097.18	2707.63	716.25	3074.71	968.81	707.43	589.49	3226.0	
1472.76	2466.29	1818.61	1115.72	3623.2	2519.29	964.58	2975.05	538.05	743.5	562.91	1063.88	1958.09	974.34	1799.81	121.49	3242.84	613.18	629.36	2321.08	2519.46	2935.53	2641.89	957.1	3344.05	721.98	1568.35	3541.78	628.21	2199.33	2303.74	897.27	995.9	3512.59	2459.65	975.74	441.58	3512.87	3447.19	1281.17	1947.57	2527.57	3764.64	109.38	900.45	896.09	2389.49	422.97	671.74	3092.8	122.3	578.09	1441.72	2596.36	2424.93	3643.23	1017.69	3728.83	1860.17	1359.33	658.66	2982.6		2316.92	2073.28	269.43	2266.71	2332.8	1403.33	2907.39	3454.03	3202.09	1831.38	1072.09	2778.51	3023.44	1986.17	608.4	2033.0	2113.58	954.77	636.14	3022.09	477.15	1549.34	3387.91	1011.22	3634.98	2150.63	3422.34	2991.96	676.62	835.82	3120.44	3147.09	784.28	974.15	3584.6	729.04	1039.82	3634.29	2648.84	311.13	2325.73	597.97	3025.94	1789.37	3210.24	3564.34	2155.38	2942.13	2965.29	3069.62	3241.08	1889.01	1209.81	1040.23	1932.78	3612.93	295.62	2967.92	2464.2	3101.42	3287.05	1015.04	3239.68	129.77	327.39	3368.77	1916.29	3027.0	802.18	3208.69	2684.11	187.26	1156.36	1273.29	2876.46	2947.45	1516.01	744.39	768.26	904.29	999.97	3424.97	276.7	2077.06	3625.8	2471.29	750.94	
961.21	1171.05	1897.65	1394.86	1898.47	680.69	2275.23	815.55	2167.11	1970.25	2707.33	1254.34	401.38	1770.41	517.35	2234.79	996.97	1705.63	1920.01	24.74	1755.07	851.5	1519.27	1616.95	1091.03	2006.13	754.4	1591.88	1713.01	1285.72	403.73	1766.83	2135.34	1268.1	1239.49	1972.85	1927.86	1622.23	1516.08	1035.92	1531.8	234.55	2068.54	2336.78	2178.42	1465.27	403.28	2471.45	1647.62	1479.69	2391.95	2733.54	991.52	784.44	174.27	1796.31	1974.18	1549.71	1785.63	1314.12	1887.97	1214.11	2316.92		557.67	2213.03	279.97	1279.86	1855.37	1838.23	1608.18	1400.85	1912.52	1999.85	771.61	1918.19	957.29	2202.64	292.03	798.16	2240.89	2316.57	1227.45	2617.88	798.28	1764.23	2986.99	1588.27	1636.88	1181.68	1717.83	1983.65	1564.65	1805.54	1736.32	2708.88	2361.04	1468.81	1878.33	2115.43	1717.56	1559.69	2449.39	676.5	1898.49	793.58	648.68	1129.8	1416.35	162.23	1872.19	847.33	1072.21	1066.54	944.23	1235.73	1700.23	1917.17	1812.39	2047.32	1912.49	1788.49	1794.09	1470.21	1383.7	1299.57	2399.06	2541.66	2156.43	534.34	2057.83	1760.06	1569.1	687.38	2296.49	2290.75	1330.95	1030.46	1997.82	1424.0	1880.88	1672.09	1623.29	2471.82	1258.49	2307.79	597.72	1568.14	686.77	2811.03	
1023.52	708.45	1347.24	1011.79	1694.66	455.48	2265.31	908.87	2053.88	1584.12	2374.15	1049.14	313.64	1350.03	532.35	2014.33	1194.89	1497.65	1570.87	580.54	1233.92	862.33	1050.82	1588.58	1296.22	1939.04	600.26	1508.51	1539.03	745.25	259.42	1737.55	1690.27	1455.86	762.77	1535.81	1750.39	1500.68	1417.18	883.18	974.34	623.4	1858.12	2068.51	1750.12	1342.85	343.75	2141.07	1413.77	1193.63	2168.13	2401.23	1043.26	548.11	521.02	1654.85	1528.83	1655.86	1232.0	857.01	1790.23	991.7	2073.28	557.67		1915.47	305.47	764.16	1346.91	1385.7	1458.13	1212.42	1361.57	1543.46	706.13	1481.25	399.66	2107.26	407.6	256.73	1802.98	2223.32	1022.68	2291.71	808.35	1503.8	2593.19	1576.0	1083.06	1366.17	1314.85	1612.33	1250.17	1423.48	1383.44	2325.53	1922.1	1513.35	1507.96	1662.84	1616.22	1086.71	2142.13	287.92	1563.58	981.7	296.14	1138.77	1491.11	504.6	1422.53	893.51	1007.0	1171.28	393.15	877.86	1714.71	1361.82	1645.05	1841.7	1462.22	1257.33	1408.56	1295.46	1307.93	1198.4	2175.91	2242.54	1765.56	199.02	1597.18	1694.84	1303.22	610.91	2096.54	1821.05	1390.39	844.87	1528.81	911.46	1505.85	1570.2	1252.74	2032.77	1352.47	2128.69	43.42	1564.23	414.53	2448.53	
1443.42	2254.15	1555.23	921.1	3410.99	2350.38	1182.9	2823.83	744.52	481.09	510.58	967.65	1835.51	725.0	1701.93	332.18	3102.18	570.2	386.38	2219.84	2271.72	2775.16	2410.54	1031.38	3203.76	889.0	1458.66	3352.39	629.47	1973.97	2157.19	1009.44	726.92	3368.18	2242.28	708.84	516.21	3317.74	3257.43	1191.79	1703.33	2411.82	3547.98	190.34	632.92	882.72	2243.93	288.53	585.92	2882.15	390.22	534.6	1414.56	2420.72	2305.96	3441.65	750.48	3568.24	1601.54	1148.53	781.38	2788.01	269.43	2213.03	1915.47		2133.31	2109.86	1140.02	2665.68	3255.55	3004.66	1567.59	803.85	2614.29	2781.23	1788.3	823.46	1923.08	1929.31	690.23	873.15	2828.7	416.5	1482.93	3171.64	900.21	3455.57	1902.37	3278.09	2760.14	415.78	665.98	2888.27	2920.51	634.94	719.58	3415.46	481.86	770.53	3439.85	2415.19	237.17	2152.71	369.03	2885.95	1643.74	3042.68	3400.48	2054.25	2699.71	2808.48	2895.33	3086.68	1694.91	1038.26	1146.69	1669.64	3407.49	389.0	2724.21	2213.68	2869.19	3089.16	1012.33	3055.04	397.2	329.8	3126.3	1773.79	2777.95	900.17	2997.35	2522.59	436.98	892.26	1310.81	2692.38	2698.9	1283.31	495.07	820.95	691.16	758.33	3266.2	526.14	1914.53	3447.95	2300.23	660.17	
1040.0	893.66	1651.38	1260.39	1700.56	437.38	2342.34	727.25	2182.62	1839.66	2610.48	1209.83	317.69	1618.6	533.5	2196.16	976.95	1668.2	1809.91	304.65	1475.17	721.13	1242.7	1667.98	1077.85	2043.03	711.11	1439.8	1693.03	1009.01	130.17	1819.53	1970.41	1248.38	961.0	1812.21	1908.67	1454.1	1355.92	1010.51	1271.88	320.26	1869.64	2273.61	2024.01	1467.21	166.83	2375.15	1596.07	1247.42	2352.64	2637.28	1066.29	546.11	215.72	1622.19	1808.42	1489.33	1534.7	1136.59	1908.46	998.35	2266.71	279.97	305.47	2133.31		1000.02	1647.12	1565.2	1427.98	1201.87	1665.5	1827.29	598.94	1648.43	696.57	2227.34	301.5	525.79	2080.8	2343.22	1018.43	2524.58	842.25	1544.13	2855.93	1468.78	1365.61	1158.3	1454.7	1861.6	1469.66	1548.19	1486.47	2583.24	2200.71	1375.17	1756.06	1945.7	1559.46	1282.65	2365.76	399.24	1796.07	760.18	495.16	1010.35	1337.23	301.71	1599.79	735.06	915.64	994.97	698.36	1111.98	1773.25	1662.91	1627.89	2014.86	1640.09	1509.23	1535.77	1277.84	1407.16	1133.94	2360.14	2462.95	1898.52	364.26	1783.93	1795.07	1344.79	502.22	2268.95	2110.46	1419.32	822.35	1722.39	1211.57	1756.0	1687.74	1498.6	2311.74	1186.24	2291.07	339.67	1452.33	430.73	2697.85	
1690.91	208.66	910.62	1230.65	1309.96	719.98	2778.37	1171.22	2477.11	1665.25	2466.8	1506.37	1069.72	1402.08	1261.11	2311.24	1469.68	1870.23	1724.11	1304.47	475.28	1055.9	334.55	2133.11	1553.44	2418.7	1228.95	1339.33	1946.09	139.17	882.47	2268.24	1622.24	1657.28	153.39	1512.42	2128.22	1277.42	1247.7	1430.45	510.47	1252.12	1440.11	2292.6	1714.71	1831.08	914.11	2258.21	1766.79	791.66	2447.08	2493.36	1702.59	685.17	1180.38	1370.37	1485.91	1715.88	781.46	976.75	2251.75	787.69	2332.8	1279.86	764.16	2109.86	1000.02		1144.17	661.98	1202.17	968.47	917.07	1469.11	911.02	771.51	453.26	2545.71	1171.71	508.69	1737.42	2656.16	831.94	2403.1	1480.55	1065.15	2554.6	1492.5	460.41	1582.89	673.15	1718.05	1521.01	800.56	815.29	2327.58	1839.58	1520.4	1632.63	1579.41	1398.04	357.95	2298.27	616.01	1742.81	1313.19	930.81	1205.75	1542.84	1261.3	700.26	1111.26	1031.08	1345.67	547.11	1186.41	2283.68	862.81	1323.78	2175.06	737.11	512.01	782.08	1045.77	1843.59	1092.55	2455.14	2403.23	1097.74	918.55	856.18	2196.81	902.56	880.62	2413.25	1669.21	2018.17	788.45	782.08	831.0	1622.0	2049.76	1428.52	1938.09	1461.82	2469.28	720.98	1494.74	677.48	2481.99	
1598.88	1335.15	415.33	665.02	2435.89	1650.71	2142.71	2163.66	1739.5	659.89	1378.74	1107.51	1467.0	459.2	1487.89	1428.53	2470.36	1187.19	786.8	1873.44	1171.96	2074.84	1381.62	1661.94	2566.73	1777.98	1273.77	2480.71	1293.01	1007.62	1600.59	1742.72	497.1	2702.11	1295.95	436.58	1386.39	2421.38	2387.95	1219.94	648.4	1967.38	2550.83	1329.57	599.62	1345.03	1678.34	1200.4	1088.86	1931.71	1525.63	1403.72	1588.17	1678.16	1861.57	2512.16	397.85	2818.2	471.02	571.92	1611.9	1919.57	1403.33	1855.37	1346.91	1140.02	1647.12	1144.17		1582.73	2346.32	2110.95	428.08	357.95	1909.62	1694.31	1019.84	1820.93	1594.52	1211.64	606.01	1908.57	1963.69	1330.85	1478.13	2185.38	1413.42	2625.08	811.16	2618.02	1716.97	726.73	827.92	1840.37	1895.95	1200.16	699.54	2633.53	688.14	450.02	2542.18	1374.97	1269.12	1458.61	832.29	2274.05	1213.42	2288.36	2643.44	1738.97	1613.32	2122.67	2118.49	2391.57	972.55	793.09	1826.63	529.65	2462.05	1361.72	1632.38	1103.8	1821.46	2189.39	1435.99	2219.13	1533.07	1368.96	2033.93	1321.05	1666.34	1635.58	2039.1	1840.61	1540.66	526.09	1741.65	1882.29	1589.75	435.62	670.44	1484.95	647.84	794.8	2539.65	1619.26	1320.8	2624.85	1595.76	1362.59	
2350.78	679.22	1220.7	1842.55	974.1	1178.61	3423.87	1457.57	3103.48	2195.58	2960.41	2156.52	1699.05	1941.0	1905.63	2900.47	1698.19	2494.6	2281.55	1862.77	414.75	1329.91	336.72	2788.34	1753.79	3059.88	1889.41	1222.62	2577.36	759.68	1436.39	2920.52	2079.55	1796.73	623.29	2004.78	2747.94	1123.93	1156.56	2090.87	962.65	1750.68	1040.23	2854.17	2182.3	2480.76	1439.34	2772.8	2388.94	652.05	3026.12	2985.66	2363.18	1093.74	1705.53	1129.17	1970.65	1728.81	1122.13	1584.97	2890.77	869.69	2907.39	1838.23	1385.7	2665.68	1565.2	661.98	1582.73		1037.67	908.74	1217.33	1938.45	1246.3	116.46	1114.92	3175.33	1786.89	1143.2	2185.77	3282.9	899.09	2908.88	2138.97	736.83	2968.3	1420.23	772.85	1746.8	235.78	2255.78	2130.09	306.56	413.49	2777.01	2269.17	1523.19	2184.07	2031.95	1218.19	305.55	2829.83	1166.94	2309.5	1613.1	1586.0	1337.36	1579.57	1854.15	38.29	1384.22	1188.38	1524.34	1208.92	1821.94	2941.17	1122.75	1054.78	2780.23	76.61	492.71	291.82	945.31	2499.79	1114.55	3034.08	2933.05	461.49	1559.8	220.76	2844.74	696.44	1267.51	3007.08	2069.72	2680.13	999.52	175.48	1394.57	2170.61	2695.1	2013.19	2352.3	1563.14	3070.22	1344.59	1434.78	1159.16	2942.48	
2454.85	1019.15	2081.9	2339.62	315.57	1015.83	3723.35	854.06	3500.44	2838.78	3648.61	2491.08	1710.47	2576.44	1943.88	3413.47	924.66	2921.23	2877.11	1626.75	1353.57	772.11	1019.72	3046.3	929.72	3395.11	2057.58	189.18	2975.47	1339.44	1319.76	3195.58	2821.47	893.02	1051.09	2704.82	3180.04	86.37	156.39	2339.81	1706.34	1410.93	478.26	3429.1	2911.43	2796.46	1261.19	3431.56	2827.66	428.23	3560.31	3675.53	2478.59	913.21	1434.48	196.84	2680.73	724.21	1958.4	2107.71	3242.94	474.24	3454.03	1608.18	1458.13	3255.55	1427.98	1202.17	2346.32	1037.67		252.2	2084.92	2667.41	838.36	1006.6	1468.54	3557.6	1728.1	1348.41	2937.31	3673.17	438.15	3579.6	2246.2	351.69	3755.91	392.04	1599.74	879.37	802.86	2885.94	2619.1	753.13	632.08	3524.53	3041.03	531.67	2792.79	2779.54	197.31	1044.79	3460.3	1172.29	2886.93	969.9	1751.17	556.71	608.58	1711.45	1039.41	795.03	542.05	733.48	1565.02	2249.5	3169.07	2011.34	205.12	3255.09	1059.85	1438.44	761.64	167.07	2765.94	315.37	3568.32	3565.03	964.27	1653.45	1179.79	3152.12	345.98	929.43	3505.98	2871.03	2831.62	616.01	1185.75	2010.49	2784.53	3024.33	2564.39	3140.14	661.85	3548.75	1437.71	411.33	1047.48	3675.54	
2217.77	777.57	1863.5	2087.98	499.27	778.12	3477.39	707.68	3249.9	2590.91	3401.42	2240.6	1473.67	2329.04	1707.85	3161.28	856.74	2669.4	2627.02	1420.9	1171.77	602.52	823.57	2800.96	889.13	3146.69	1812.61	371.25	2724.23	1103.46	1087.94	2949.71	2580.87	901.68	815.58	2461.15	2928.35	314.67	281.77	2092.13	1477.28	1218.66	669.01	3177.66	2669.28	2547.47	1035.42	3183.12	2575.62	256.7	3308.21	3428.39	2240.69	672.46	1229.52	445.76	2437.98	823.73	1737.6	1857.34	2993.53	222.93	3202.09	1400.85	1212.42	3004.66	1201.87	968.47	2110.95	908.74	252.2		1867.64	2426.36	631.1	904.46	1217.03	3307.61	1498.99	1096.48	2697.12	3423.05	189.76	3331.53	2007.19	390.9	3516.78	540.19	1385.32	863.41	676.24	2637.27	2367.04	665.98	545.69	3282.02	2802.48	617.38	2543.4	2539.68	437.14	854.33	3210.53	925.3	2636.22	845.9	1503.74	470.96	670.88	1492.85	918.99	638.73	380.96	665.92	1313.11	1997.3	2926.06	1799.23	432.95	3002.95	946.71	1254.43	668.43	85.15	2519.18	214.97	3316.22	3315.17	950.72	1409.17	1083.72	2904.45	246.0	713.87	3253.79	2636.71	2592.87	379.97	1073.32	1765.21	2535.39	2775.37	2313.54	2902.97	663.83	3296.67	1190.47	548.39	805.77	3431.45	
1863.41	1124.98	17.72	993.31	2130.51	1555.52	2549.39	2052.82	2156.19	1087.91	1778.34	1431.02	1561.35	878.03	1643.06	1855.75	2358.79	1585.49	1213.25	1933.9	803.13	1947.51	1074.5	2029.47	2448.43	2181.13	1470.82	2237.88	1688.56	800.76	1588.84	2123.88	895.26	2563.98	1067.81	861.12	1799.23	2165.57	2149.37	1495.32	424.06	1976.43	2228.92	1756.83	1001.6	1705.38	1653.81	1614.44	1482.8	1658.22	1953.68	1802.14	1858.79	1555.14	1879.26	2233.67	820.82	2632.94	139.18	807.93	2012.21	1701.38	1831.38	1912.52	1361.57	1567.59	1665.5	917.07	428.08	1217.33	2084.92	1867.64		774.19	1790.5	1322.61	973.52	2236.8	1690.38	1161.42	990.86	2327.83	1745.39	1738.19	1707.81	1878.73	1752.01	2401.68	485.56	2486.05	1382.08	1154.8	1212.4	1497.95	1570.07	1571.39	1062.35	2436.83	1113.91	846.24	2282.16	1057.84	1689.29	1387.29	1257.08	2182.1	1319.49	2120.07	2459.9	1825.07	1243.95	2000.44	1945.61	2250.78	969.25	1079.47	2195.15	103.74	2174.9	1783.27	1257.53	725.17	1479.7	1939.2	1780.57	2006.87	1961.12	1787.09	1652.04	1398.11	1272.12	2021.61	1756.09	1739.27	1967.8	856.19	2064.16	1702.99	1199.09	578.74	1096.55	1867.96	1041.89	1139.18	2376.1	2045.55	1325.84	2405.62	1503.13	1740.03	
1561.89	1649.05	763.47	642.23	2773.33	1901.58	1882.14	2411.8	1459.8	340.92	1021.97	1026.64	1599.26	273.79	1567.8	1111.53	2714.15	967.79	491.8	2014.81	1528.99	2333.87	1726.26	1482.64	2813.22	1530.09	1328.25	2792.87	1074.87	1330.28	1802.83	1537.93	155.08	2958.57	1617.44	102.9	1123.83	2739.6	2698.91	1193.37	992.02	2143.46	2893.44	990.25	246.89	1190.4	1886.01	843.09	884.95	2260.69	1193.75	1047.22	1544.6	1943.35	2034.72	2839.19	62.17	3099.62	828.69	690.85	1373.47	2226.28	1072.09	1999.85	1543.46	803.85	1827.29	1469.11	357.95	1938.45	2667.41	2426.36	774.19		2167.3	2050.68	1273.43	1542.41	1719.23	1455.18	272.05	1619.67	2269.89	972.92	1485.96	2524.37	1092.15	2927.2	1165.82	2871.87	2066.31	407.59	669.72	2191.01	2242.16	858.56	384.92	2922.43	406.18	119.85	2861.42	1722.15	915.14	1702.57	546.23	2509.11	1352.56	2566.23	2925.45	1865.27	1969.52	2378.0	2401.0	2653.23	1206.17	803.48	1641.09	877.71	2792.71	1072.82	1989.2	1461.58	2172.01	2507.0	1301.85	2519.6	1200.85	1013.51	2391.14	1475.11	2024.29	1424.81	2370.72	2089.91	1223.26	296.51	1626.46	2171.62	1947.68	673.72	387.36	1284.5	496.79	493.32	2812.05	1306.65	1525.07	2924.98	1846.87	1015.44	
1637.89	715.36	1780.78	1699.68	1127.16	267.87	2932.59	262.61	2749.25	2257.14	3059.98	1751.32	900.99	2009.17	1128.52	2720.46	568.55	2202.88	2259.39	791.04	1319.22	166.58	992.71	2255.79	660.56	2622.43	1276.69	840.87	2241.29	998.97	506.2	2406.99	2320.47	793.04	789.96	2177.27	2454.03	858.24	757.65	1572.43	1366.46	589.63	1297.23	2771.37	2392.97	2034.13	434.94	2829.68	2119.84	744.73	2874.13	3087.16	1663.61	235.65	599.11	1029.38	2163.46	954.15	1651.32	1511.47	2480.42	462.72	2778.51	771.61	706.13	2614.29	598.94	911.02	1909.62	1246.3	838.36	631.1	1790.5	2167.3		1296.67	895.2	2799.08	900.35	713.01	2436.67	2915.28	467.2	2980.52	1436.33	1005.61	3247.22	879.02	1367.91	708.4	1068.21	2291.73	1951.3	1126.24	1034.18	2988.9	2552.15	807.28	2189.57	2286.71	961.16	1035.52	2837.35	469.03	2256.57	402.59	997.75	432.76	786.5	873.83	1272.91	213.19	317.06	486.04	962.6	1576.42	2367.12	1753.0	1041.74	2547.52	1310.97	1381.93	1119.13	698.72	1986.24	536.31	2881.92	2939.11	1468.05	880.0	1462.53	2375.4	818.49	98.86	2802.43	2421.84	2017.07	279.08	1420.68	1497.27	2185.53	2259.34	1939.25	2660.39	654.0	2833.51	701.59	864.95	321.59	3121.55	
2456.5	772.81	1326.64	1958.81	910.04	1249.86	3538.61	1495.02	3219.56	2310.45	3072.62	2270.37	1794.89	2056.43	2005.14	3016.83	1721.48	2610.67	2397.34	1942.56	523.24	1368.16	440.62	2901.3	1771.34	3175.04	1995.85	1194.62	2693.13	873.35	1518.81	3034.16	2190.74	1803.02	722.0	2118.13	2864.19	1091.93	1135.47	2201.77	1077.98	1820.14	961.09	2969.85	2293.92	2594.77	1516.77	2886.41	2505.06	651.09	3142.27	3097.77	2469.49	1159.76	1780.2	1079.72	2083.66	1713.78	1231.23	1701.21	3006.08	894.15	3023.44	1918.19	1481.25	2781.23	1648.43	771.51	1694.31	116.46	1006.6	904.46	1322.61	2050.68	1296.67		1223.22	3291.27	1879.01	1243.11	2296.14	3398.98	919.1	3021.88	2243.84	685.01	3074.54	1395.52	885.89	1758.11	236.33	2370.89	2246.47	254.02	374.6	2886.38	2378.04	1509.94	2299.72	2142.95	1178.24	413.57	2944.28	1252.44	2425.52	1650.01	1689.9	1351.24	1571.31	1941.04	81.58	1421.0	1211.12	1542.08	1318.55	1937.2	3053.48	1226.31	1001.99	2896.68	67.36	597.61	244.97	931.07	2612.45	1116.06	3150.22	3047.35	345.32	1659.23	179.4	2959.09	676.25	1325.56	3123.49	2176.97	2789.1	1038.7	181.22	1510.96	2286.18	2809.75	2129.6	2459.81	1566.62	3186.67	1440.84	1412.02	1234.32	3052.45	
1238.29	503.75	960.13	871.11	1644.45	632.22	2348.76	1145.21	2071.27	1388.57	2199.39	1077.31	662.87	1131.72	827.11	1949.03	1451.17	1473.34	1413.37	980.2	883.7	1061.59	783.33	1692.72	1548.25	1995.68	776.15	1565.15	1539.24	384.36	615.33	1831.61	1427.29	1687.96	522.27	1288.07	1733.58	1529.54	1470.12	982.93	575.64	1003.31	1793.14	1960.63	1503.03	1400.07	681.95	1975.69	1374.56	1114.47	2093.81	2226.54	1249.57	669.99	907.9	1657.07	1272.05	1828.76	840.27	644.35	1832.34	999.71	1986.17	957.29	399.66	1788.3	696.57	453.26	1019.84	1114.92	1468.54	1217.03	973.52	1273.43	895.2	1223.22		2135.66	780.92	193.85	1543.88	2248.7	1040.52	2125.47	1029.19	1418.52	2358.6	1677.65	688.34	1602.4	1104.45	1430.33	1152.72	1227.62	1220.38	2106.13	1658.35	1656.94	1333.08	1392.53	1651.59	809.97	1997.44	438.85	1420.42	1254.33	485.97	1294.99	1655.26	896.11	1153.17	1107.18	1133.19	1380.57	102.46	789.48	1839.63	966.73	1627.6	1796.96	1190.26	892.86	1210.09	1301.78	1402.59	1272.48	2101.84	2101.69	1542.73	498.91	1308.22	1766.28	1230.71	822.0	2044.51	1527.06	1565.91	913.22	1232.93	602.08	1326.34	1623.47	1097.53	1766.03	1538.88	2092.06	359.92	1672.38	577.23	2245.53	
1254.19	2638.75	2221.6	1335.62	3768.38	2561.92	359.77	2954.57	82.66	1202.82	1152.18	1067.7	1910.08	1361.9	1704.37	501.28	3187.54	681.49	1051.08	2200.27	2821.89	2940.81	2875.22	601.91	3285.38	212.23	1522.96	3615.71	599.63	2425.41	2296.13	468.27	1507.47	3460.94	2649.47	1439.6	439.16	3604.88	3524.08	1226.88	2252.81	2432.45	3922.82	716.59	1428.06	765.2	2375.3	1031.26	787.91	3243.04	547.48	1162.63	1222.22	2654.84	2342.12	3753.19	1481.41	3716.4	2233.71	1592.12	319.01	3084.71	608.4	2202.64	2107.26	823.46	2227.34	2545.71	1820.93	3175.33	3557.6	3307.61	2236.8	1542.41	2799.08	3291.27	2135.66		1949.25	2217.25	1495.04	116.21	3119.5	1074.71	1405.32	3551.03	1607.7	3677.52	2465.49	3372.23	3218.85	1138.06	1055.5	3346.06	3351.33	1392.02	1538.72	3598.64	1142.6	1544.0	3721.97	2890.59	919.16	2387.76	998.43	2974.64	1811.22	3227.94	3564.03	2043.13	3212.38	2960.04	3109.82	3222.07	2033.24	1359.3	589.96	2330.92	3735.83	470.67	3243.2	2780.61	3327.67	3392.17	822.19	3305.66	547.3	919.96	3631.92	1920.79	3325.2	444.62	3358.66	2700.53	425.04	1694.77	934.86	2950.11	3244.68	1802.0	1161.3	540.11	1203.86	1581.77	3413.58	344.49	2123.28	3663.97	2521.73	1346.01	
740.76	1107.71	1674.57	1105.96	1996.55	725.28	2049.18	1013.57	1908.7	1679.55	2415.87	969.15	129.54	1484.02	244.9	1954.05	1238.63	1424.1	1628.0	302.19	1640.16	1018.31	1454.04	1378.26	1337.1	1759.43	465.72	1741.22	1437.44	1147.44	411.61	1529.7	1851.66	1512.07	1166.02	1688.29	1653.2	1755.31	1657.42	754.94	1336.41	495.21	2165.0	2049.83	1891.69	1197.98	467.46	2179.95	1362.08	1529.88	2111.25	2442.14	767.87	834.01	396.22	1922.79	1691.22	1771.47	1570.65	1039.97	1631.55	1291.2	2033.0	292.03	407.6	1923.08	301.5	1171.71	1594.52	1786.89	1728.1	1498.99	1690.38	1719.23	900.35	1879.01	780.92	1949.25		663.53	1955.53	2064.48	1313.54	2326.67	549.66	1832.01	2695.7	1766.91	1468.59	1423.13	1701.41	1692.14	1272.78	1803.47	1751.82	2417.28	2075.53	1667.4	1586.91	1833.41	1860.95	1490.95	2159.11	637.06	1606.51	1025.39	381.62	1307.11	1625.13	146.17	1823.2	1028.37	1216.87	1278.41	742.0	945.66	1477.6	1706.24	1927.05	1768.2	1863.17	1660.98	1789.7	1576.23	1127.06	1435.42	2118.49	2252.12	2150.68	293.44	2000.66	1511.58	1631.43	803.72	2019.52	2012.29	1119.9	1119.02	1933.6	1170.65	1589.67	1412.42	1332.38	2186.05	1471.18	2034.89	450.73	1749.77	708.67	2519.0	
1224.05	476.16	1148.56	1008.26	1551.51	446.43	2406.65	957.49	2157.29	1550.17	2357.73	1149.72	561.71	1298.57	762.44	2068.02	1262.01	1572.96	1562.7	822.06	977.2	879.53	806.62	1737.71	1359.98	2064.22	772.14	1428.3	1629.24	490.56	431.37	1882.21	1607.92	1503.39	521.11	1464.28	1832.08	1402.72	1333.83	1021.18	753.73	820.99	1707.9	2095.55	1679.96	1464.04	492.49	2130.36	1479.32	1029.64	2216.87	2384.93	1239.91	497.11	730.35	1541.75	1450.53	1657.66	1026.28	802.66	1906.42	874.27	2113.58	798.16	256.73	1929.31	525.79	508.69	1211.64	1143.2	1348.41	1096.48	1161.42	1455.18	713.01	1243.11	193.85	2217.25	663.53		1723.96	2332.06	911.97	2280.9	1008.85	1340.17	2534.4	1526.28	839.91	1416.82	1092.08	1587.88	1277.9	1207.4	1180.9	2277.4	1839.85	1492.84	1487.67	1574.78	1523.22	840.47	2145.36	248.21	1564.87	1062.65	455.8	1124.94	1485.6	759.64	1180.65	922.88	969.52	1199.0	249.59	904.4	1875.67	1149.09	1520.22	1907.12	1219.8	1001.18	1191.3	1181.59	1449.55	1126.78	2224.84	2248.67	1541.12	416.6	1350.7	1826.86	1144.25	634.91	2158.78	1714.64	1575.08	763.63	1280.38	788.62	1482.4	1691.2	1243.28	1948.47	1363.13	2200.46	213.32	1518.92	391.83	2412.49	
1723.77	1919.62	982.95	854.91	3038.2	2170.37	1849.29	2679.4	1413.26	358.18	788.24	1181.12	1839.51	472.13	1788.49	1020.66	2980.6	1015.28	505.67	2254.63	1772.94	2603.25	1986.71	1543.24	3080.07	1520.42	1542.62	3064.12	1116.63	1598.92	2062.31	1573.15	117.0	3227.03	1886.69	268.79	1112.9	3010.03	2970.27	1372.14	1252.42	2394.11	3155.53	857.48	79.31	1283.59	2146.45	643.67	954.23	2528.53	1070.43	811.67	1702.98	2213.87	2285.01	3107.79	274.61	3371.04	1065.64	946.26	1379.61	2497.88	954.77	2240.89	1802.98	690.23	2080.8	1737.42	606.01	2185.77	2937.31	2697.12	990.86	272.05	2436.67	2296.14	1543.88	1495.04	1955.53	1723.96		1556.31	2541.54	753.75	1674.53	2788.42	820.32	3199.16	1416.13	3139.97	2322.98	399.72	800.4	2446.3	2501.6	594.28	120.22	3194.32	463.3	158.07	3131.72	1980.72	736.25	1970.74	562.42	2774.09	1598.06	2837.53	3196.95	2100.78	2215.56	2646.8	2672.67	2922.7	1474.55	1018.45	1691.37	1093.94	3060.23	1029.31	2233.23	1701.67	2427.4	2777.46	1406.35	2791.57	1076.55	823.55	2633.16	1723.72	2259.31	1457.9	2637.77	2358.16	1127.16	202.04	1734.79	2443.62	2184.46	945.39	448.97	1333.06	658.92	231.23	3082.75	1215.99	1786.46	3196.99	2115.79	757.02	
1365.71	2751.47	2312.92	1441.4	3882.95	2678.04	340.65	3070.42	179.43	1278.86	1155.14	1182.79	2026.03	1450.62	1819.64	542.17	3302.57	788.32	1130.77	2313.94	2926.11	3056.94	2984.86	710.29	3400.26	316.24	1639.14	3731.74	710.63	2534.85	2412.29	571.22	1576.03	3575.94	2761.36	1517.26	538.52	3720.67	3640.06	1343.09	2355.57	2546.79	4037.01	745.5	1492.27	881.4	2491.41	1056.17	894.03	3357.18	555.7	1163.03	1333.87	2770.84	2456.96	3868.68	1559.42	3832.18	2328.97	1698.53	435.11	3200.14	636.14	2316.57	2223.32	873.15	2343.22	2656.16	1908.57	3282.9	3673.17	3423.05	2327.83	1619.67	2915.28	3398.98	2248.7	116.21	2064.48	2332.06	1556.31		3235.04	1083.74	1519.77	3664.87	1611.02	3793.73	2567.85	3487.31	3329.28	1212.85	1158.36	3456.68	3463.16	1410.0	1592.6	3714.76	1225.04	1614.45	3837.85	2999.7	941.18	2503.61	1080.14	3089.87	1927.26	3344.12	3680.01	2157.36	3319.82	3076.09	3226.01	3337.87	2146.33	1469.92	684.19	2423.24	3851.02	548.29	3350.28	2883.44	3438.23	3507.66	937.5	3421.72	553.84	928.95	3740.29	2036.98	3430.47	556.99	3472.88	2816.73	448.9	1757.52	1038.98	3066.0	3349.94	1904.99	1243.52	656.25	1301.19	1628.79	3529.44	359.94	2239.21	3780.18	2637.77	1350.25	
2029.07	630.13	1739.89	1909.84	683.06	590.34	3287.75	595.42	3062.29	2422.31	3233.58	2052.93	1285.33	2161.67	1519.62	2979.18	802.38	2484.06	2453.41	1248.32	1099.36	475.56	745.03	2611.24	854.77	2957.66	1622.85	526.18	2537.56	961.21	902.0	2760.05	2424.83	904.49	679.04	2300.38	2742.6	491.01	431.28	1902.81	1342.06	1056.36	851.53	2999.83	2510.69	2358.69	852.74	3012.95	2391.16	293.29	3127.06	3260.64	2051.79	483.74	1058.56	633.85	2278.77	895.95	1611.7	1683.7	2805.0	44.29	3022.09	1227.45	1022.68	2828.7	1018.43	831.94	1963.69	899.09	438.15	189.76	1745.39	2269.89	467.2	919.1	1040.52	3119.5	1313.54	911.97	2541.54	3235.04		3162.02	1818.08	538.96	3361.86	661.91	1270.63	849.59	682.83	2466.99	2186.44	707.92	599.91	3122.21	2649.2	694.53	2371.57	2384.85	612.21	781.57	3037.4	735.69	2460.94	745.86	1314.31	439.74	727.77	1312.6	916.76	521.83	292.16	625.28	1134.42	1815.06	2736.32	1683.72	622.66	2819.09	949.83	1177.81	705.2	273.13	2329.65	261.6	3135.06	3141.8	1030.33	1219.42	1096.49	2715.15	352.43	540.97	3070.63	2489.7	2403.73	197.43	1072.29	1602.92	2364.13	2586.58	2138.04	2751.54	678.22	3112.33	1000.95	663.13	616.54	3269.0	
1859.23	2564.83	1729.07	1281.58	3712.94	2713.9	1422.1	3199.92	1009.67	740.86	94.64	1380.61	2234.07	1003.72	2110.58	597.45	3485.0	983.89	721.44	2625.63	2501.19	3143.96	2682.63	1412.59	3586.54	1199.11	1864.7	3688.09	1034.53	2264.39	2539.99	1366.95	842.95	3747.57	2544.18	904.46	887.86	3646.11	3593.1	1604.76	1953.63	2811.11	3841.41	381.37	736.61	1294.4	2626.92	150.84	1002.31	3189.86	529.16	118.11	1830.15	2777.19	2704.09	3760.32	938.24	3933.89	1801.19	1481.54	1129.25	3120.0	477.15	2617.88	2291.71	416.5	2524.58	2403.1	1330.85	2908.88	3579.6	3331.53	1738.19	972.92	2980.52	3021.88	2125.47	1074.71	2326.67	2280.9	753.75	1083.74	3162.02		1898.39	3467.83	534.6	3802.71	2136.1	3657.84	3027.71	695.23	1056.51	3153.96	3198.32	335.93	713.71	3773.57	793.34	891.97	3768.59	2681.9	187.22	2513.77	729.22	3269.92	2030.95	3403.77	3763.69	2460.58	2940.55	3180.15	3250.42	3459.23	2038.12	1416.16	1509.06	1841.84	3720.5	743.35	2961.01	2434.44	3134.88	3414.9	1422.62	3397.94	530.42	155.03	3363.33	2161.88	2997.14	1266.26	3303.17	2891.68	650.56	928.53	1710.74	3037.94	2920.6	1573.74	799.3	1210.46	1041.34	688.59	3634.43	731.03	2287.0	3796.85	2662.07	273.79	
215.87	1484.65	1690.27	846.72	2497.14	1230.47	1500.48	1563.02	1368.85	1346.63	1991.53	523.28	536.96	1217.73	308.75	1457.96	1783.86	937.36	1254.8	797.12	1902.4	1563.38	1803.53	828.62	1881.0	1211.8	257.5	2274.4	929.09	1408.97	931.97	980.03	1588.95	2057.05	1524.93	1426.33	1140.55	2280.45	2187.61	306.2	1457.4	1027.13	2662.41	1582.57	1600.59	671.87	1001.83	1759.86	898.2	2001.85	1614.01	2016.34	234.96	1334.78	937.8	2442.68	1442.19	2321.0	1618.06	917.07	1089.82	1790.4	1549.34	798.28	808.35	1482.93	842.25	1480.55	1478.13	2138.97	2246.2	2007.19	1707.81	1485.96	1436.33	2243.84	1029.19	1405.32	549.66	1008.85	1674.53	1519.77	1818.08	1898.39		2311.66	2325.75	2310.77	1640.26	1968.8	2100.87	1339.92	895.63	2215.91	2184.77	2043.53	1788.9	2215.82	1242.02	1584.25	2390.46	1833.45	1719.24	1093.16	1219.28	1572.59	554.63	1852.59	2174.6	637.96	2177.03	1576.01	1753.18	1828.07	944.28	693.27	931.21	1755.24	2439.7	1267.86	2215.04	1899.71	2199.96	2088.05	585.43	1965.36	1620.75	1803.02	2549.35	610.05	2336.68	964.47	2110.83	1337.93	1511.07	1779.8	585.68	1630.5	2261.91	1130.09	1250.3	873.95	1015.65	1893.77	2020.83	1516.41	839.53	2294.52	1201.54	2120.0	
2526.12	922.64	1878.26	2275.3	251.92	1107.91	3746.79	1098.57	3488.21	2730.4	3530.49	2486.04	1790.13	2467.22	2023.42	3359.21	1230.66	2891.85	2786.83	1785.51	1101.5	992.18	807.65	3076.42	1250.64	3403.16	2097.53	537.93	2956.77	1203.54	1422.04	3221.85	2675.2	1233.2	929.4	2573.34	3152.09	429.46	503.04	2360.36	1536.98	1595.13	376.72	3352.36	2771.12	2803.38	1381.09	3323.27	2792.69	311.33	3499.69	3556.93	2546.62	998.89	1596.64	394.73	2545.11	1075.55	1762.34	2028.64	3243.49	550.13	3387.91	1764.23	1503.8	3171.64	1544.13	1065.15	2185.38	736.83	351.69	390.9	1878.73	2524.37	1005.61	685.01	1418.52	3551.03	1832.01	1340.17	2788.42	3664.87	538.96	3467.83	2311.66		3597.93	740.36	1397.09	1210.75	515.19	2783.0	2563.12	433.62	324.83	3381.88	2884.92	882.92	2696.56	2630.58	498.74	821.16	3363.04	1218.79	2803.4	1235.43	1780.82	845.98	957.99	1842.61	730.89	1029.5	771.77	1037.46	1520.37	2207.11	3210.86	1795.35	318.15	3212.88	744.59	1186.91	446.29	357.26	2789.13	582.33	3507.75	3468.03	612.61	1702.75	849.64	3166.9	201.19	1079.38	3457.67	2701.39	2894.07	734.33	866.22	1896.09	2686.28	3030.0	2485.43	2978.28	997.08	3508.14	1474.92	761.22	1123.82	3539.71	
2317.28	2739.21	1747.92	1597.2	3848.81	2979.83	1951.05	3484.85	1543.9	1017.92	456.13	1802.76	2589.83	1243.54	2500.31	1130.74	3782.44	1461.88	1075.61	2997.89	2553.57	3413.59	2792.18	1928.37	3882.82	1733.12	2250.04	3884.21	1528.73	2416.65	2850.66	1893.25	937.11	4034.06	2704.86	1070.63	1405.98	3829.28	3790.44	2021.7	2061.39	3160.21	3961.07	912.01	855.64	1774.96	2936.43	616.0	1457.26	3344.38	1060.53	448.25	2290.32	3027.86	3051.2	3924.47	1087.24	4187.29	1848.89	1740.6	1657.22	3318.19	1011.22	2986.99	2593.19	900.21	2855.93	2554.6	1413.42	2968.3	3755.91	3516.78	1752.01	1092.15	3247.22	3074.54	2358.6	1607.7	2695.7	2534.4	820.32	1611.02	3361.86	534.6	2325.75	3597.93		4019.33	2210.45	3946.08	3121.0	1003.86	1437.79	3241.42	3303.79	282.23	715.03	4012.62	1108.85	977.23	3950.78	2783.26	708.2	2779.13	1107.08	3572.57	2362.99	3653.53	4013.58	2836.84	2995.59	3455.5	3490.13	3732.94	2284.89	1752.43	2034.14	1849.76	3875.24	1265.68	3009.54	2476.96	3222.77	3596.77	1905.76	3611.71	1061.13	688.27	3402.76	2492.71	3019.0	1789.07	3452.34	3165.88	1184.6	899.8	2210.36	3262.68	2948.18	1763.92	1106.11	1720.13	1363.93	619.79	3896.58	1263.35	2580.71	4017.0	2925.68	261.69	
2507.65	1292.01	2396.87	2534.55	629.0	1121.22	3809.72	773.63	3626.85	3066.14	3877.03	2625.05	1778.09	2808.09	2002.09	3583.23	707.16	3072.32	3087.47	1602.34	1710.09	748.64	1363.58	3133.62	673.03	3501.45	2155.61	203.0	3115.01	1622.97	1384.63	3284.97	3082.27	578.31	1339.21	2954.25	3326.22	310.91	265.2	2450.66	2002.96	1364.8	746.58	3620.56	3166.16	2912.38	1309.9	3652.68	2985.72	782.74	3734.89	3904.19	2534.5	1038.82	1416.79	412.88	2934.03	339.99	2269.64	2321.17	3359.02	706.17	3634.98	1588.27	1576.0	3455.57	1468.78	1492.5	2625.08	1420.23	392.04	540.19	2401.68	2927.2	879.02	1395.52	1677.65	3677.52	1766.91	1526.28	3199.16	3793.73	661.91	3802.71	2310.77	740.36	4019.33		1921.88	596.31	1184.46	3107.79	2800.99	1143.02	1021.07	3775.98	3308.06	181.86	3009.71	3043.07	274.53	1393.71	3670.91	1309.9	3090.89	833.61	1871.17	460.72	270.62	1718.06	1424.47	743.01	569.0	550.2	1764.94	2425.64	3241.94	2335.97	489.03	3414.66	1446.81	1793.34	1150.7	481.81	2865.23	407.65	3742.78	3774.49	1350.68	1757.11	1570.18	3254.39	723.79	977.82	3668.92	3150.95	2886.81	764.79	1573.36	2256.92	3003.41	3138.01	2768.81	3411.22	393.51	3703.58	1565.59	28.64	1166.3	3919.86	
1830.71	667.2	483.39	1135.04	1649.01	1159.74	2742.12	1629.35	2389.62	1427.59	2187.69	1512.43	1348.15	1177.83	1491.03	2152.23	1929.44	1786.14	1521.7	1660.5	369.36	1515.57	590.4	2147.49	2013.76	2372.2	1383.82	1754.61	1878.1	376.03	1264.89	2265.4	1308.26	2116.87	601.93	1232.23	2029.34	1680.76	1667.06	1504.36	213.21	1651.51	1753.09	2092.0	1410.28	1825.52	1313.86	2000.57	1679.36	1172.74	2270.97	2213.01	1834.57	1137.86	1566.75	1748.31	1197.86	2163.95	365.3	886.29	2200.81	1227.09	2150.63	1636.88	1083.06	1902.37	1365.61	460.41	811.16	772.85	1599.74	1385.32	485.56	1165.82	1367.91	885.89	688.34	2465.49	1468.59	839.91	1416.13	2567.85	1270.63	2136.1	1640.26	1397.09	2210.45	1921.88		2043.07	910.55	1489.3	1410.01	1031.67	1094.43	2009.25	1503.67	1964.75	1422.75	1261.06	1796.92	576.28	2059.61	1022.37	1553.61	1768.75	1144.79	1662.32	1992.55	1584.03	804.49	1570.65	1487.8	1805.73	733.48	1154.04	2309.08	414.09	1690.19	2045.59	825.78	316.21	1012.92	1455.47	1869.98	1532.09	2278.83	2162.32	1228.6	1182.0	876.37	2176.9	1270.69	1331.07	2261.23	1310.84	2104.34	1245.79	796.89	663.7	1408.34	2022.8	1273.25	1591.33	1918.03	2329.33	1041.23	1926.84	1112.17	2173.13	
2142.09	1376.11	2477.28	2377.63	1179.65	970.76	3456.75	461.24	3331.7	2946.14	3740.27	2368.1	1473.58	2704.1	1668.03	3353.88	185.04	2826.42	2937.02	1188.72	1930.89	543.67	1579.61	2794.95	95.52	3180.6	1868.2	733.97	2850.55	1686.73	1121.06	2945.61	3024.24	90.25	1444.21	2878.23	3066.36	828.75	723.89	2166.94	2063.38	947.3	1320.46	3425.28	3094.05	2619.25	1034.49	3507.23	2753.04	1108.26	3510.12	3767.36	2172.01	941.21	1031.07	981.32	2865.99	394.01	2347.23	2206.02	3054.68	882.99	3422.34	1181.68	1366.17	3278.09	1158.3	1582.89	2618.02	1746.8	879.37	863.41	2486.05	2871.87	708.4	1758.11	1602.4	3372.23	1423.13	1416.82	3139.97	3487.31	849.59	3657.84	1968.8	1210.75	3946.08	596.31	2043.07		1523.86	2976.8	2612.11	1527.6	1408.56	3683.75	3256.36	416.91	2872.96	2991.53	849.08	1618.92	3506.8	1169.33	2929.41	398.85	1635.56	409.87	330.65	1335.05	1762.62	495.46	571.56	237.62	1665.71	2242.86	2881.8	2441.7	1044.23	3173.11	1794.04	2004.53	1528.85	862.23	2550.08	648.47	3517.67	3606.39	1808.28	1506.88	1937.23	2933.17	1108.08	781.96	3427.25	3129.46	2512.5	803.82	1918.38	2204.11	2870.29	2835.46	2618.56	3365.19	218.28	3448.82	1372.35	567.86	1025.65	3811.47	
2315.88	616.37	1383.15	1900.16	761.16	1041.15	3448.47	1260.41	3150.19	2300.64	3084.47	2175.72	1626.71	2040.58	1845.74	2975.94	1485.2	2543.01	2373.85	1741.85	590.14	1133.93	350.07	2796.92	1535.68	3090.51	1860.43	987.13	2619.23	797.49	1324.53	2934.76	2212.87	1570.49	583.01	2124.57	2800.57	889.2	920.8	2086.76	1075.04	1606.3	847.38	2946.04	2312.7	2500.09	1314.62	2887.37	2439.25	420.23	3108.23	3110.34	2331.19	945.56	1572.87	901.97	2093.1	1493.94	1273.6	1644.21	2924.12	657.9	2991.96	1717.83	1314.85	2760.14	1454.7	673.15	1716.97	235.78	802.86	676.24	1382.08	2066.31	1068.21	236.33	1104.45	3218.85	1701.41	1092.08	2322.98	3329.28	682.83	3027.71	2100.87	515.19	3121.0	1184.46	910.55	1523.86		2357.71	2190.46	128.55	191.88	2917.06	2413.23	1288.6	2279.01	2166.55	985.72	346.05	2936.86	1066.23	2396.98	1415.13	1546.94	1116.11	1346.38	1752.36	242.87	1186.28	974.81	1306.31	1204.76	1859.55	2943.99	1293.95	830.38	2844.47	271.03	674.93	109.64	710.11	2506.83	885.04	3116.26	3041.2	450.72	1501.95	414.04	2866.29	460.69	1102.55	3079.63	2221.35	2661.42	805.47	397.2	1477.31	2266.88	2720.55	2089.27	2501.81	1335.12	3137.87	1276.69	1199.01	1031.07	3079.23	
1361.81	1873.59	1141.99	602.1	3025.93	2024.34	1482.71	2516.89	1055.39	67.62	769.91	824.62	1587.81	317.24	1497.65	706.41	2807.17	615.57	106.02	1994.3	1858.59	2456.24	2009.29	1143.53	2908.42	1139.13	1247.34	2992.99	717.42	1580.3	1865.69	1176.11	377.81	3066.05	1855.85	306.2	730.04	2951.75	2897.99	1033.72	1293.19	2160.81	3158.15	606.11	321.5	889.13	1952.34	545.98	556.82	2500.28	798.91	797.11	1338.43	2084.78	2052.13	3067.93	348.64	3243.59	1185.85	786.79	990.49	2425.06	676.62	1983.65	1612.33	415.78	1861.6	1718.05	726.73	2255.78	2885.94	2637.27	1154.8	407.59	2291.73	2370.89	1430.33	1138.06	1692.14	1587.88	399.72	1212.85	2466.99	695.23	1339.92	2783.0	1003.86	3107.79	1489.3	2976.8	2357.71		444.32	2485.33	2522.43	725.28	488.7	3080.69	105.68	409.22	3074.22	2011.89	580.42	1823.58	162.79	2593.85	1366.67	2712.16	3072.53	1833.0	2289.32	2494.08	2557.11	2773.19	1343.73	751.49	1292.32	1256.17	3029.64	667.51	2312.98	1799.3	2466.23	2720.87	1014.56	2702.79	806.37	685.29	2715.54	1497.36	2363.94	1060.99	2614.36	2204.66	818.51	580.63	1342.21	2343.07	2285.13	887.1	106.51	933.7	363.09	578.45	2945.66	900.47	1604.48	3102.12	1971.86	836.96	
924.88	1640.5	1195.98	290.39	2794.61	1689.07	1344.36	2158.09	979.78	454.96	1144.29	383.19	1177.71	404.11	1065.46	796.73	2436.38	378.99	362.22	1573.43	1767.85	2111.07	1842.14	835.54	2537.97	973.93	816.04	2706.0	478.04	1392.97	1491.26	915.63	732.92	2702.2	1639.35	584.62	620.19	2677.31	2611.39	589.45	1197.44	1754.72	2939.48	820.56	722.72	526.31	1578.02	908.34	273.18	2263.97	941.31	1170.79	903.27	1763.11	1647.6	2809.08	613.01	2904.57	1191.48	546.78	803.28	2147.12	835.82	1564.65	1250.17	665.98	1469.66	1521.01	827.92	2130.09	2619.1	2367.04	1212.4	669.72	1951.3	2246.47	1152.72	1055.5	1272.78	1277.9	800.4	1158.36	2186.44	1056.51	895.63	2563.12	1437.79	2800.99	1410.01	2612.11	2190.46	444.32		2318.8	2335.68	1156.13	908.11	2754.94	348.4	741.04	2798.64	1853.84	896.31	1493.29	334.53	2220.27	978.25	2381.26	2737.79	1409.49	2166.56	2143.56	2237.22	2421.43	1054.43	375.66	999.51	1299.43	2780.32	654.12	2195.99	1725.3	2300.03	2452.07	632.77	2404.33	949.33	994.62	2589.71	1108.64	2272.89	810.45	2380.13	1858.66	894.66	938.78	956.75	2041.09	2192.37	746.71	358.44	658.15	182.78	1008.23	2601.92	948.32	1250.33	2792.3	1639.91	1248.01	
2431.34	733.88	1499.69	2028.49	667.59	1125.38	3573.75	1299.52	3277.65	2428.01	3210.1	2300.98	1733.47	2168.25	1955.57	3104.48	1504.4	2670.73	2502.02	1829.21	699.04	1175.5	478.56	2920.32	1547.29	3216.58	1978.03	941.54	2746.48	925.84	1418.26	3058.89	2336.8	1567.65	705.39	2250.39	2928.48	838.24	884.65	2208.77	1200.63	1682.19	738.07	3074.3	2437.15	2625.14	1402.62	3014.05	2567.11	422.0	3236.75	3235.89	2447.31	1025.2	1655.29	828.02	2218.56	1464.37	1392.81	1772.64	3050.53	690.09	3120.44	1805.54	1423.48	2888.27	1548.19	800.56	1840.37	306.56	753.13	665.98	1497.95	2191.01	1126.24	254.02	1227.62	3346.06	1803.47	1207.4	2446.3	3456.68	707.92	3153.96	2215.91	433.62	3241.42	1143.02	1031.67	1527.6	128.55	2485.33	2318.8		122.77	3040.11	2535.28	1261.77	2407.03	2290.23	924.39	473.44	3064.23	1166.54	2525.33	1452.16	1663.08	1125.89	1325.79	1848.04	297.69	1225.34	998.05	1319.59	1328.5	1986.83	3066.4	1407.62	751.65	2972.85	311.24	782.2	19.1	684.78	2630.2	880.37	3244.78	3168.5	350.89	1613.48	427.24	2991.42	428.9	1169.71	3208.16	2341.62	2780.06	853.95	434.63	1605.6	2394.83	2846.2	2217.81	2622.73	1329.75	3266.31	1386.42	1160.06	1120.09	3202.92	
2400.62	717.86	1570.66	2045.44	569.3	1056.0	3568.99	1194.72	3284.68	2466.86	3257.13	2297.61	1689.01	2205.24	1915.4	3126.52	1390.1	2680.31	2534.19	1759.54	781.69	1072.6	516.16	2909.21	1430.39	3215.65	1952.94	820.02	2752.54	947.79	1357.46	3050.18	2390.34	1447.15	701.87	2297.25	2939.38	717.59	762.06	2194.41	1250.19	1601.8	659.06	3104.79	2488.94	2620.41	1335.37	3056.42	2578.0	308.59	3261.9	3283.21	2417.95	952.16	1581.14	715.7	2266.88	1341.63	1458.93	1792.04	3051.4	586.05	3147.09	1736.32	1383.44	2920.51	1486.47	815.29	1895.95	413.49	632.08	545.69	1570.07	2242.16	1034.18	374.6	1220.38	3351.33	1751.82	1180.9	2501.6	3463.16	599.91	3198.32	2184.77	324.83	3303.79	1021.07	1094.43	1408.56	191.88	2522.43	2335.68	122.77		3095.88	2593.99	1139.0	2440.83	2344.55	806.77	521.02	3102.58	1115.85	2554.99	1345.77	1635.81	1009.23	1203.21	1787.84	410.47	1120.81	886.9	1203.6	1322.52	1994.26	3051.96	1483.3	641.92	2989.49	428.44	866.63	129.65	562.27	2619.34	760.51	3269.95	3207.24	434.19	1577.48	549.64	2986.55	306.43	1084.35	3228.47	2404.7	2755.88	757.69	553.81	1637.54	2429.35	2843.73	2242.91	2684.18	1208.98	3284.0	1348.41	1037.83	1055.92	3256.71	
2036.65	2505.53	1565.08	1323.02	3631.3	2721.1	1745.3	3222.63	1322.3	743.59	297.48	1520.57	2312.94	979.99	2219.63	898.25	3517.83	1186.93	794.11	2719.42	2363.2	3154.88	2580.93	1666.29	3618.59	1498.04	1969.44	3646.82	1258.16	2188.68	2581.77	1640.82	706.69	3772.25	2475.48	821.91	1148.93	3595.85	3552.49	1739.49	1846.54	2885.07	3749.6	678.03	613.16	1499.19	2667.94	365.15	1178.05	3119.21	854.49	307.18	2009.96	2773.08	2776.23	3697.42	844.03	3933.91	1655.16	1478.18	1408.3	3078.94	784.28	2708.88	2325.53	634.94	2583.24	2327.58	1200.16	2777.01	3524.53	3282.02	1571.39	858.56	2988.9	2886.38	2106.13	1392.02	2417.28	2277.4	594.28	1410.0	3122.21	335.93	2043.53	3381.88	282.23	3775.98	2009.25	3683.75	2917.06	725.28	1156.13	3040.11	3095.88		509.14	3762.87	830.75	751.6	3717.89	2574.99	473.15	2520.01	824.91	3306.55	2089.16	3400.31	3760.9	2557.76	2806.17	3195.48	3239.29	3473.77	2028.57	1476.02	1779.69	1672.77	3651.25	1013.84	2822.82	2290.2	3021.24	3363.27	1630.19	3368.46	856.7	485.31	3221.13	2219.39	2843.45	1533.38	3229.28	2905.58	967.46	718.78	1939.05	3015.49	2769.92	1519.5	829.01	1455.29	1087.21	440.94	3640.53	1052.45	2314.62	3772.62	2667.38	171.56	
1832.88	2024.97	1055.96	974.0	3135.41	2286.27	1896.35	2796.06	1458.09	457.18	734.8	1290.53	1959.67	591.8	1907.3	1051.57	3097.85	1099.12	593.84	2374.75	1855.0	2718.73	2080.59	1626.08	3197.14	1578.98	1660.91	3170.5	1197.33	1701.68	2181.48	1647.49	232.43	3343.2	1989.95	388.95	1175.55	3114.66	3076.94	1485.42	1347.94	2514.22	3249.87	871.18	188.43	1377.81	2265.45	622.77	1045.29	2629.45	1084.37	756.09	1811.38	2328.24	2405.12	3209.47	393.27	3483.98	1147.05	1065.67	1445.32	2605.4	974.15	2361.04	1922.1	719.58	2200.71	1839.58	699.54	2269.17	3041.03	2802.48	1062.35	384.92	2552.15	2378.04	1658.35	1538.72	2075.53	1839.85	120.22	1592.6	2649.2	713.71	1788.9	2884.92	715.03	3308.06	1503.67	3256.36	2413.23	488.7	908.11	2535.28	2593.99	509.14		3305.9	564.48	266.1	3236.05	2073.01	726.26	2087.03	648.49	2891.92	1718.27	2950.73	3309.71	2220.72	2298.0	2762.71	2785.04	3038.11	1590.67	1137.42	1770.0	1163.95	3160.49	1080.71	2314.25	1781.45	2516.49	2882.21	1502.81	2900.66	1089.88	803.52	2712.15	1843.87	2334.34	1532.36	2737.66	2474.43	1153.66	216.54	1830.72	2554.65	2260.78	1058.11	551.81	1413.65	773.53	111.07	3196.88	1243.7	1905.2	3306.33	2231.6	677.86	
2406.53	1314.15	2430.78	2496.82	799.07	1065.89	3716.24	656.21	3551.0	3042.23	3850.56	2557.46	1690.19	2787.92	1907.49	3527.57	541.3	3009.99	3054.35	1481.02	1782.19	658.0	1429.73	3043.0	497.55	3417.33	2076.05	354.07	3047.15	1644.45	1303.01	3194.56	3077.33	396.47	1369.02	2943.28	3260.45	461.11	381.61	2374.05	2027.71	1239.57	924.56	3575.48	3157.25	2835.02	1223.37	3622.95	2927.11	872.82	3681.04	3877.76	2434.44	996.45	1301.12	587.4	2925.41	206.37	2301.84	2294.76	3279.64	737.79	3584.6	1468.81	1513.35	3415.46	1375.17	1520.4	2633.53	1523.19	531.67	617.38	2436.83	2922.43	807.28	1509.94	1656.94	3598.64	1667.4	1492.84	3194.32	3714.76	694.53	3773.57	2215.82	882.92	4012.62	181.86	1964.75	416.91	1288.6	3080.69	2754.94	1261.77	1139.0	3762.87	3305.9		2980.46	3039.95	449.89	1463.32	3635.52	1262.77	3054.43	690.74	1804.6	374.59	88.77	1606.68	1531.24	640.12	523.99	406.12	1738.1	2379.41	3144.97	2377.28	659.41	3354.78	1556.76	1863.22	1267.39	579.15	2780.95	434.25	3688.84	3738.15	1495.43	1684.95	1687.61	3169.51	833.82	903.72	3609.7	3157.42	2784.43	751.79	1683.77	2249.02	2975.25	3058.53	2734.37	3411.13	226.68	3640.4	1507.7	153.24	1115.32	3902.17	
1271.77	1783.41	1100.1	497.0	2938.04	1922.41	1477.74	2413.33	1060.29	107.52	870.6	731.32	1482.23	245.33	1393.88	742.78	2702.85	569.28	100.18	1889.09	1791.93	2353.76	1929.66	1093.22	2804.15	1123.97	1143.63	2897.27	675.08	1495.77	1760.82	1138.17	416.44	2962.3	1768.0	304.14	718.49	2857.64	2802.24	935.98	1222.03	2055.13	3072.35	670.14	384.1	821.66	1847.51	643.03	496.78	2410.96	850.34	897.8	1249.37	1984.2	1946.45	2976.06	344.06	3142.07	1133.65	688.77	967.62	2329.92	729.04	1878.33	1507.96	481.86	1756.06	1632.63	688.14	2184.07	2792.79	2543.4	1113.91	406.18	2189.57	2299.72	1333.08	1142.6	1586.91	1487.67	463.3	1225.04	2371.57	793.34	1242.02	2696.56	1108.85	3009.71	1422.75	2872.96	2279.01	105.68	348.4	2407.03	2440.83	830.75	564.48	2980.46		437.78	2980.06	1933.79	668.08	1721.86	144.96	2489.3	1261.08	2611.19	2971.36	1728.02	2218.23	2391.16	2457.17	2670.3	1244.9	645.8	1247.31	1213.13	2939.09	676.78	2243.02	1735.56	2387.94	2627.28	943.3	2605.4	858.09	773.04	2644.88	1391.81	2298.98	1024.02	2525.51	2101.94	854.57	625.42	1271.77	2244.92	2219.63	803.32	18.87	888.55	257.47	661.53	2843.56	931.63	1500.61	3003.68	1870.17	942.18	
1650.46	1762.13	837.26	746.55	2880.27	2021.15	1891.19	2531.53	1461.42	349.5	933.64	1110.62	1714.46	366.56	1677.18	1091.47	2833.97	1007.0	507.38	2130.08	1620.02	2453.28	1829.39	1530.39	2933.02	1548.12	1435.27	2906.99	1112.51	1440.96	1922.23	1575.22	49.04	3078.17	1728.8	159.11	1139.14	2852.43	2813.23	1287.37	1094.95	2261.35	2998.0	950.32	155.59	1250.39	2005.53	771.03	932.68	2370.47	1159.53	957.98	1631.81	2062.34	2152.51	2949.78	143.76	3217.88	914.17	809.11	1397.65	2341.14	1039.82	2115.43	1662.84	770.53	1945.7	1579.41	450.02	2031.95	2779.54	2539.68	846.24	119.85	2286.71	2142.95	1392.53	1544.0	1833.41	1574.78	158.07	1614.45	2384.85	891.97	1584.25	2630.58	977.23	3043.07	1261.06	2991.53	2166.55	409.22	741.04	2290.23	2344.55	751.6	266.1	3039.95	437.78		2974.06	1823.78	853.34	1822.25	564.73	2628.96	1468.99	2684.63	3043.62	1979.31	2062.15	2497.54	2518.96	2772.6	1325.86	909.42	1685.07	949.87	2902.16	1073.48	2080.49	1549.97	2271.31	2619.88	1367.0	2635.57	1166.23	947.12	2481.22	1592.36	2109.73	1460.75	2479.7	2209.57	1201.57	198.48	1694.25	2288.81	2034.2	792.02	420.08	1326.33	578.88	373.7	2930.9	1287.87	1644.67	3041.13	1966.41	912.71	
2595.66	1212.45	2279.17	2521.72	355.51	1165.57	3877.66	926.7	3666.62	3028.01	3838.56	2657.87	1853.5	2766.18	2084.79	3591.04	932.48	3093.48	3063.18	1734.44	1546.53	866.95	1215.76	3199.99	915.92	3555.25	2212.3	129.56	3144.67	1534.87	1458.98	3350.17	3015.69	842.61	1246.43	2897.47	3351.32	122.48	203.54	2499.4	1903.16	1507.78	474.89	3611.71	3104.94	2958.58	1393.98	3620.11	3001.6	624.83	3739.17	3865.53	2620.55	1068.14	1543.34	138.36	2873.91	611.64	2155.71	2293.38	3405.8	652.05	3634.29	1717.56	1616.22	3439.85	1559.46	1398.04	2542.18	1218.19	197.31	437.14	2282.16	2861.42	961.16	1178.24	1651.59	3721.97	1860.95	1523.22	3131.72	3837.85	612.21	3768.59	2390.46	498.74	3950.78	274.53	1796.92	849.08	985.72	3074.22	2798.64	924.39	806.77	3717.89	3236.05	449.89	2980.06	2974.06		1240.03	3646.89	1334.26	3071.71	1019.65	1911.53	608.38	537.27	1832.06	1217.12	878.4	647.32	753.41	1746.32	2427.0	3318.25	2208.3	216.12	3429.96	1234.79	1631.67	934.81	354.68	2922.92	425.68	3747.16	3751.47	1096.25	1808.2	1346.75	3310.68	537.01	1057.23	3681.96	3067.19	2974.17	771.88	1359.02	2202.02	2972.17	3186.16	2748.89	3335.61	634.24	3722.7	1598.78	301.4	1202.12	3867.98	
2045.23	389.01	1057.17	1564.17	1073.06	922.6	3130.84	1272.11	2820.33	1954.65	2739.13	1860.42	1399.15	1694.81	1602.4	2635.05	1541.8	2211.85	2029.03	1584.39	318.94	1145.7	43.05	2489.5	1610.35	2769.08	1583.92	1212.23	2291.31	465.56	1156.0	2623.49	1869.73	1680.45	325.14	1779.14	2467.75	1128.82	1130.87	1788.34	730.22	1491.38	1177.97	2601.53	1968.79	2185.08	1167.7	2541.37	2107.1	617.65	2765.71	2765.07	2057.69	851.02	1436.84	1180.64	1748.01	1668.59	941.58	1307.06	2601.01	742.74	2648.84	1559.69	1086.71	2415.19	1282.65	357.95	1374.97	305.55	1044.79	854.33	1057.84	1722.15	1035.52	413.57	809.97	2890.59	1490.95	840.47	1980.72	2999.7	781.57	2681.9	1833.45	821.16	2783.26	1393.71	576.28	1618.92	346.05	2011.89	1853.84	473.44	521.02	2574.99	2073.01	1463.32	1933.79	1823.78	1240.03		2590.88	883.54	2052.95	1425.77	1280.7	1213.34	1505.21	1564.91	343.68	1202.1	1047.42	1385.27	904.98	1532.77	2640.88	976.31	1118.92	2507.08	381.61	400.31	454.34	914.19	2200.29	1031.68	2773.73	2695.19	743.34	1256.88	510.6	2550.18	705.27	1038.51	2739.66	1884.59	2375.7	825.65	442.74	1133.16	1921.51	2401.89	1747.49	2163.55	1458.98	2799.49	1044.94	1402.66	895.39	2736.16	
1674.9	2451.42	1678.61	1138.72	3605.39	2572.12	1273.84	3050.98	849.15	636.23	281.57	1204.79	2070.18	897.39	1938.89	426.28	3331.98	798.6	584.07	2456.39	2427.89	2999.37	2588.94	1227.26	3433.58	1028.26	1695.13	3562.56	847.45	2160.65	2386.6	1185.76	805.18	3596.79	2435.24	833.12	702.64	3524.53	3467.52	1428.92	1868.5	2646.86	3738.38	205.79	700.2	1108.1	2473.46	116.46	821.41	3078.83	389.37	303.46	1645.56	2639.48	2540.64	3644.02	871.28	3791.5	1739.23	1353.72	949.17	2996.06	311.13	2449.39	2142.13	237.17	2365.76	2298.27	1269.12	2829.83	3460.3	3210.53	1689.29	915.14	2837.35	2944.28	1997.44	919.16	2159.11	2145.36	736.25	941.18	3037.4	187.22	1719.24	3363.04	708.2	3670.91	2059.61	3506.8	2936.86	580.42	896.31	3064.23	3102.58	473.15	726.26	3635.52	668.08	853.34	3646.89	2590.88		2373.22	581.12	3116.11	1874.45	3263.83	3622.67	2290.88	2862.72	3033.88	3113.83	3312.55	1906.71	1264.3	1327.21	1792.84	3607.17	559.46	2885.18	2365.12	3045.13	3294.57	1235.95	3268.27	392.76	105.02	3288.03	2004.93	2929.89	1083.15	3193.24	2746.78	495.29	929.25	1523.6	2906.53	2852.0	1467.42	677.36	1023.9	902.14	729.8	3490.4	581.81	2139.65	3664.05	2521.21	452.64	
1307.36	494.66	1375.45	1234.55	1406.84	201.16	2552.09	709.46	2332.45	1788.36	2592.45	1324.18	575.7	1540.19	806.63	2273.36	1013.8	1765.03	1793.25	701.23	1087.52	634.87	843.48	1875.81	1111.8	2222.98	887.97	1230.01	1812.28	649.49	272.87	2024.43	1854.93	1256.3	563.17	1709.82	2020.98	1217.24	1137.4	1167.52	969.36	636.97	1570.64	2313.76	1925.62	1624.96	298.2	2362.99	1676.69	909.84	2425.02	2619.65	1328.08	271.27	564.96	1368.8	1696.93	1420.23	1249.75	1042.44	2071.93	704.05	2325.73	676.5	287.92	2152.71	399.24	616.01	1458.61	1166.94	1172.29	925.3	1387.29	1702.57	469.03	1252.44	438.85	2387.76	637.06	248.21	1970.74	2503.61	735.69	2513.77	1093.16	1218.79	2779.13	1309.9	1022.37	1169.33	1066.23	1823.58	1493.29	1166.54	1115.85	2520.01	2087.03	1262.77	1721.86	1822.25	1334.26	883.54	2373.22		1792.11	815.48	578.88	890.63	1250.0	688.65	1201.88	676.47	744.02	953.94	496.4	1117.63	2002.62	1365.87	1357.62	2105.77	1242.16	1128.0	1152.92	1008.73	1593.97	921.59	2432.91	2475.63	1514.42	486.38	1385.15	1979.83	1017.81	387.42	2359.68	1962.85	1676.87	562.54	1323.2	1036.83	1717.51	1852.73	1473.06	2195.89	1122.32	2396.01	265.41	1300.22	148.31	2652.58	
1224.6	1885.25	1243.04	557.61	3042.24	1991.1	1335.91	2472.28	916.01	215.35	814.41	697.2	1509.34	382.52	1399.83	602.65	2756.03	452.87	57.72	1907.53	1922.1	2418.93	2047.02	980.84	2857.58	985.66	1150.55	2985.18	554.69	1607.63	1810.87	1014.19	536.81	3019.24	1874.0	443.4	578.02	2949.53	2890.19	914.69	1349.71	2085.94	3179.86	549.86	484.29	731.75	1897.79	579.25	397.71	2513.23	717.54	841.21	1199.77	2058.46	1978.29	3072.75	484.54	3210.67	1273.23	779.58	833.03	2420.05	597.97	1898.49	1563.58	369.03	1796.07	1742.81	832.29	2309.5	2886.93	2636.22	1257.08	546.23	2256.57	2425.52	1420.42	998.43	1606.51	1564.87	562.42	1080.14	2460.94	729.22	1219.28	2803.4	1107.08	3090.89	1553.61	2929.41	2396.98	162.79	334.53	2525.33	2554.99	824.91	648.49	3054.43	144.96	564.73	3071.71	2052.95	581.12	1792.11		2540.81	1301.95	2682.73	3041.65	1743.81	2344.2	2453.98	2532.89	2732.84	1327.98	687.01	1129.61	1355.67	3038.46	531.86	2369.95	1867.92	2506.28	2720.64	858.96	2689.13	725.44	683.9	2770.84	1432.94	2429.88	899.18	2628.49	2166.38	713.82	742.02	1185.36	2326.91	2350.19	919.8	163.38	770.92	322.9	733.73	2909.88	789.07	1559.96	3083.76	1940.12	913.48	
1749.92	1117.8	2171.69	1992.66	1285.04	628.99	3064.93	155.54	2933.49	2565.75	3353.59	1969.95	1074.84	2329.05	1270.26	2956.29	216.9	2428.35	2550.37	802.95	1717.5	283.29	1383.47	2400.03	318.2	2784.13	1469.46	890.28	2451.8	1397.51	729.94	2551.0	2659.49	488.63	1192.13	2509.38	2667.64	952.83	837.91	1768.12	1758.4	559.65	1447.43	3030.61	2724.82	2220.6	643.01	3119.6	2355.9	1038.51	3112.7	3380.6	1779.38	631.34	636.18	1128.05	2499.5	756.19	2043.05	1832.57	2656.8	762.13	3025.94	793.58	981.7	2885.95	760.18	1313.19	2274.05	1613.1	969.9	845.9	2182.1	2509.11	402.59	1650.01	1254.33	2974.64	1025.39	1062.65	2774.09	3089.87	745.86	3269.92	1572.59	1235.43	3572.57	833.61	1768.75	398.85	1415.13	2593.85	2220.27	1452.16	1345.77	3306.55	2891.92	690.74	2489.3	2628.96	1019.65	1425.77	3116.11	815.48	2540.81		1242.24	415.58	629.29	942.38	1636.26	229.11	466.65	285.33	1306.87	1853.8	2490.4	2148.77	1168.41	2774.98	1672.47	1782.12	1448.4	883.11	2152.44	663.21	3120.22	3214.89	1775.19	1112.54	1822.89	2536.47	1080.1	442.83	3028.95	2775.31	2123.14	613.58	1788.59	1849.92	2487.41	2437.32	2233.47	3001.77	470.55	3050.1	992.03	809.67	682.97	3430.22	
769.04	930.58	1303.23	766.16	1980.12	751.47	1974.2	1185.69	1757.75	1345.75	2116.24	754.05	253.58	1130.77	346.45	1726.19	1458.59	1205.5	1314.95	664.85	1369.25	1149.68	1249.97	1299.06	1560.15	1644.26	317.91	1804.5	1244.12	870.27	514.84	1446.83	1490.46	1725.77	970.32	1329.37	1456.36	1795.39	1712.97	588.64	989.36	798.31	2141.4	1789.84	1538.19	1047.09	601.13	1881.19	1124.54	1469.52	1881.07	2143.09	784.31	843.74	689.11	1947.66	1328.77	1941.24	1204.98	665.45	1494.41	1281.82	1789.37	648.68	296.14	1643.74	495.16	930.81	1213.42	1586.0	1751.17	1503.74	1319.49	1352.56	997.75	1689.9	485.97	1811.22	381.62	455.8	1598.06	1927.26	1314.31	2030.95	554.63	1780.82	2362.99	1871.17	1144.79	1635.56	1546.94	1366.67	978.25	1663.08	1635.81	2089.16	1718.27	1804.6	1261.08	1468.99	1911.53	1280.7	1874.45	578.88	1301.95	1242.24		1430.36	1779.16	525.55	1623.96	1177.1	1302.22	1451.87	414.8	616.86	1430.23	1342.3	1935.5	1550.83	1662.26	1375.41	1646.89	1587.42	1015.55	1494.48	1888.77	1972.81	1994.92	131.06	1786.48	1400.96	1581.73	900.88	1805.84	1642.39	1120.32	1139.78	1712.87	789.26	1261.23	1274.63	1003.61	1829.29	1636.93	1835.82	313.46	1859.0	710.52	2202.73	
2047.85	997.1	2112.58	2125.18	872.28	692.35	3352.57	320.76	3179.3	2675.08	3481.71	2183.62	1322.41	2422.87	1543.84	3152.98	386.25	2635.62	2683.67	1144.6	1527.88	289.21	1174.86	2677.48	421.41	3048.66	1704.99	478.88	2673.47	1319.91	931.86	2828.96	2720.69	467.12	1060.39	2583.06	2886.49	537.27	422.39	2002.2	1702.29	910.09	1032.85	3201.72	2797.91	2463.59	854.21	3253.04	2552.53	704.27	3306.47	3508.91	2074.94	627.87	957.41	712.79	2566.67	533.78	1982.58	1927.6	2909.04	473.77	3210.24	1129.8	1138.77	3042.68	1010.35	1205.75	2288.36	1337.36	556.71	470.96	2120.07	2566.23	432.76	1351.24	1294.99	3227.94	1307.11	1124.94	2837.53	3344.12	439.74	3403.77	1852.59	845.98	3653.53	460.72	1662.32	409.87	1116.11	2712.16	2381.26	1125.89	1009.23	3400.31	2950.73	374.59	2611.19	2684.63	608.38	1213.34	3263.83	890.63	2682.73	415.58	1430.36		360.72	1257.53	1353.7	282.79	174.67	195.06	1372.32	2005.88	2783.44	2068.55	753.17	2980.28	1385.63	1603.42	1126.0	488.72	2412.14	263.69	3314.28	3366.17	1421.58	1311.52	1529.99	2801.11	716.59	529.64	3235.18	2809.02	2426.86	417.35	1509.45	1892.62	2606.39	2687.9	2363.51	3057.24	256.11	3266.18	1133.22	442.76	742.65	3537.12	
2361.78	1335.06	2453.26	2484.28	884.14	1050.56	3674.12	611.58	3517.96	3035.7	3841.94	2529.75	1654.0	2783.59	1867.13	3504.72	465.4	2984.32	3043.24	1427.49	1824.03	629.5	1470.22	3002.89	414.36	3380.2	2043.13	436.84	3018.64	1663.29	1271.91	3154.41	3080.06	307.7	1393.19	2943.25	3232.76	542.0	454.96	2342.05	2046.77	1184.79	1012.14	3557.86	3157.95	2801.93	1190.14	3612.92	2903.41	927.58	3658.95	3869.14	2390.19	988.58	1251.43	674.25	2926.54	174.77	2323.77	2288.25	3245.04	769.66	3564.34	1416.35	1491.11	3400.48	1337.23	1542.84	2643.44	1579.57	608.58	670.88	2459.9	2925.45	786.5	1571.31	1655.26	3564.03	1625.13	1485.6	3196.95	3680.01	727.77	3763.69	2174.6	957.99	4013.58	270.62	1992.55	330.65	1346.38	3072.53	2737.79	1325.79	1203.21	3760.9	3309.71	88.77	2971.36	3043.62	537.27	1505.21	3622.67	1250.0	3041.65	629.29	1779.16	360.72		1558.19	1589.25	604.74	525.24	349.87	1733.03	2362.84	3101.5	2403.37	744.88	3329.97	1616.07	1903.81	1330.53	641.04	2744.39	473.85	3666.71	3724.74	1569.57	1657.04	1749.81	3132.21	896.91	880.22	3584.98	3165.61	2738.52	762.53	1742.94	2251.74	2966.69	3024.1	2723.05	3415.85	158.75	3613.68	1487.93	242.0	1101.77	3897.84	
807.6	1177.02	1809.53	1250.02	1992.12	738.22	2122.62	950.59	2006.66	1821.79	2550.51	1093.46	271.98	1629.06	355.58	2072.78	1150.02	1543.78	1766.81	165.92	1734.64	972.77	1526.27	1460.32	1245.74	1847.94	595.94	1708.75	1550.78	1249.63	430.41	1610.75	1997.31	1422.43	1240.32	1833.79	1765.64	1731.72	1629.06	874.25	1461.53	389.58	2161.8	2176.14	2036.52	1303.4	461.52	2314.78	1486.66	1548.1	2229.92	2576.61	837.22	846.54	307.12	1903.2	1837.01	1696.75	1702.92	1185.97	1727.76	1294.68	2155.38	162.23	504.6	2054.25	301.71	1261.3	1738.97	1854.15	1711.45	1492.85	1825.07	1865.27	873.83	1941.04	896.11	2043.13	146.17	759.64	2100.78	2157.36	1312.6	2460.58	637.96	1842.61	2836.84	1718.06	1584.03	1335.05	1752.36	1833.0	1409.49	1848.04	1787.84	2557.76	2220.72	1606.68	1728.02	1979.31	1832.06	1564.91	2290.88	688.65	1743.81	942.38	525.55	1257.53	1558.19		1889.51	975.07	1184.75	1208.63	866.98	1088.96	1548.02	1837.4	1913.76	1885.19	1929.75	1760.75	1835.32	1566.34	1223.13	1409.17	2237.02	2382.46	2197.93	427.66	2071.13	1601.32	1644.05	782.21	2134.27	2158.43	1181.42	1115.43	2007.04	1313.27	1731.21	1511.23	1474.49	2331.15	1401.49	2145.65	547.73	1699.16	732.36	2657.05	
2388.91	715.49	1247.7	1879.25	964.17	1210.42	3461.56	1480.8	3140.41	2228.86	2991.48	2194.47	1735.96	1974.89	1943.09	2935.86	1717.52	2531.55	2315.89	1896.69	443.0	1353.29	374.39	2826.43	1771.46	3097.42	1927.58	1225.6	2614.56	797.72	1470.78	2958.5	2109.89	1811.05	660.4	2036.71	2784.65	1125.47	1161.76	2129.14	996.44	1782.27	1024.6	2888.37	2212.94	2518.67	1472.66	2804.95	2425.82	662.71	3061.02	3016.66	2401.35	1124.24	1738.3	1124.69	2002.31	1736.4	1151.03	1621.7	2928.24	888.62	2942.13	1872.19	1422.53	2699.71	1599.79	700.26	1613.32	38.29	1039.41	918.99	1243.95	1969.52	1272.91	81.58	1153.17	3212.38	1823.2	1180.65	2215.56	3319.82	916.76	2940.55	2177.03	730.89	2995.59	1424.47	804.49	1762.62	242.87	2289.32	2166.56	297.69	410.47	2806.17	2298.0	1531.24	2218.23	2062.15	1217.12	343.68	2862.72	1201.88	2344.2	1636.26	1623.96	1353.7	1589.25	1889.51		1407.22	1207.22	1541.95	1247.21	1859.45	2979.35	1148.38	1049.03	2816.32	40.31	518.79	284.61	952.45	2537.93	1126.91	3068.98	2965.79	426.69	1597.23	190.22	2882.57	701.09	1296.13	3042.64	2097.56	2718.41	1022.86	155.77	1430.09	2204.67	2732.83	2048.79	2380.31	1576.48	3106.07	1381.53	1439.68	1191.86	2972.02	
1768.56	909.93	1991.02	1898.57	1104.7	476.45	3076.49	74.24	2913.46	2461.08	3260.8	1925.73	1050.55	2215.49	1267.53	2903.29	359.2	2381.13	2458.71	862.45	1498.84	56.65	1160.15	2402.91	448.39	2777.59	1438.5	750.33	2414.24	1205.52	667.35	2554.47	2530.8	580.83	982.41	2386.29	2628.59	793.33	681.74	1737.33	1576.62	630.35	1271.77	2961.93	2602.08	2197.4	585.41	3029.33	2301.61	815.12	3058.1	3287.96	1796.06	447.76	674.67	970.22	2373.19	764.17	1861.32	1717.35	2641.03	535.42	2965.29	847.33	893.51	2808.48	735.06	1111.26	2122.67	1384.22	795.03	638.73	2000.44	2378.0	213.19	1421.0	1107.18	2960.04	1028.37	922.88	2646.8	3076.09	521.83	3180.15	1576.01	1029.5	3455.5	743.01	1570.65	495.46	1186.28	2494.08	2143.56	1225.34	1120.81	3195.48	2762.71	640.12	2391.16	2497.54	878.4	1202.1	3033.88	676.47	2453.98	229.11	1177.1	282.79	604.74	975.07	1407.22		259.62	279.15	1172.25	1770.32	2505.85	1960.77	999.14	2727.18	1443.38	1565.86	1221.16	686.44	2141.35	479.83	3065.81	3134.87	1552.14	1053.43	1593.78	2529.71	863.93	289.92	2982.18	2634.16	2147.16	384.78	1559.7	1709.09	2387.69	2420.01	2138.98	2871.24	459.84	3009.82	894.24	724.19	531.13	3326.17	
1954.93	822.43	1938.19	1975.44	847.58	552.48	3248.38	326.91	3058.51	2518.34	3327.01	2056.05	1217.37	2263.95	1445.52	3016.06	510.54	2503.65	2531.88	1089.8	1359.61	230.53	1008.05	2571.24	567.08	2935.52	1589.23	524.83	2546.01	1145.68	822.12	2722.28	2555.73	636.0	885.9	2420.26	2757.28	550.15	444.54	1882.98	1528.33	869.52	1015.72	3057.59	2634.57	2344.62	751.99	3099.88	2417.66	578.32	3168.3	3354.21	1980.66	474.61	897.97	725.11	2402.91	699.92	1808.23	1770.93	2791.57	318.7	3069.62	1072.21	1007.0	2895.33	915.64	1031.08	2118.49	1188.38	542.05	380.96	1945.61	2401.0	317.06	1211.12	1133.19	3109.82	1216.87	969.52	2672.67	3226.01	292.16	3250.42	1753.18	771.77	3490.13	569.0	1487.8	571.56	974.81	2557.11	2237.22	998.05	886.9	3239.29	2785.04	523.99	2457.17	2518.96	647.32	1047.42	3113.83	744.02	2532.89	466.65	1302.22	174.67	525.24	1184.75	1207.22	259.62		338.95	1214.16	1861.57	2683.76	1893.89	747.13	2846.44	1240.88	1433.9	996.04	426.86	2299.87	228.21	3176.16	3216.78	1312.12	1189.04	1388.2	2688.95	613.64	415.25	3100.89	2640.39	2334.13	242.71	1362.43	1727.3	2451.78	2570.69	2212.12	2890.94	430.76	3134.9	996.97	557.56	598.63	3378.22	
2013.19	1138.67	2242.24	2177.65	1047.2	753.12	3326.49	268.17	3177.59	2740.02	3539.93	2196.86	1312.61	2493.82	1521.5	3177.46	193.31	2653.55	2737.78	1077.84	1695.61	319.48	1345.48	2656.67	229.51	3036.07	1704.51	626.04	2683.96	1450.8	938.88	2808.1	2806.47	313.34	1206.6	2663.19	2898.94	701.67	587.82	2003.97	1828.74	835.41	1202.17	3239.08	2878.92	2462.04	854.61	3308.41	2575.69	897.66	3332.7	3567.09	2041.82	713.47	901.73	871.48	2649.49	494.37	2112.13	1995.78	2903.27	655.64	3241.08	1066.54	1171.28	3086.68	994.97	1345.67	2391.57	1524.34	733.48	665.92	2250.78	2653.23	486.04	1542.08	1380.57	3222.07	1278.41	1199.0	2922.7	3337.87	625.28	3459.23	1828.07	1037.46	3732.94	550.2	1805.73	237.62	1306.31	2773.19	2421.43	1319.59	1203.6	3473.77	3038.11	406.12	2670.3	2772.6	753.41	1385.27	3312.55	953.94	2732.84	285.33	1451.87	195.06	349.87	1208.63	1541.95	279.15	338.95		1448.59	2048.7	2753.3	2205.29	921.08	3000.0	1574.69	1768.52	1319.32	680.66	2401.11	456.51	3340.37	3413.38	1616.6	1326.45	1720.34	2788.06	911.63	568.7	3254.89	2906.26	2389.42	566.68	1697.54	1982.6	2666.8	2682.65	2418.09	3146.24	193.04	3280.78	1172.94	525.58	807.33	3605.02	
1150.4	606.17	954.71	775.43	1745.24	695.84	2246.86	1205.72	1968.95	1304.2	2113.55	975.09	617.88	1050.56	760.85	1850.1	1509.04	1371.65	1322.86	966.03	959.54	1129.12	879.82	1592.16	1607.61	1893.35	688.67	1657.48	1436.99	464.8	633.75	1730.41	1358.62	1752.55	623.44	1214.69	1631.89	1624.55	1562.53	884.41	594.86	1014.02	1894.68	1865.43	1430.37	1298.11	708.06	1887.92	1273.28	1215.63	1995.73	2140.73	1160.36	744.64	913.49	1754.66	1201.0	1905.62	841.41	557.02	1729.91	1094.28	1889.01	944.23	393.15	1694.91	698.36	547.11	972.55	1208.92	1565.02	1313.11	969.25	1206.17	962.6	1318.55	102.46	2033.24	742.0	249.59	1474.55	2146.33	1134.42	2038.12	944.28	1520.37	2284.89	1764.94	733.48	1665.71	1204.76	1343.73	1054.43	1328.5	1322.52	2028.57	1590.67	1738.1	1244.9	1325.86	1746.32	904.98	1906.71	496.4	1327.98	1306.87	414.8	1372.32	1733.03	866.98	1247.21	1172.25	1214.16	1448.59		688.77	1740.04	973.4	1726.53	1696.55	1283.74	962.01	1310.86	1398.05	1302.08	1361.57	2003.75	2010.63	1641.03	450.87	1398.28	1664.36	1331.84	883.76	1944.8	1468.46	1471.28	1000.2	1321.97	543.3	1238.88	1521.23	1005.22	1699.49	1612.19	1991.52	359.56	1758.79	641.35	2164.86	
806.04	1286.98	1061.8	163.64	2433.88	1313.59	1603.27	1786.69	1291.02	734.8	1500.4	361.81	837.43	547.22	770.08	1164.14	2069.06	686.4	698.2	1247.48	1489.16	1736.92	1516.43	993.58	2170.62	1237.99	525.91	2332.66	759.68	1067.22	1123.86	1112.64	921.04	2332.77	1292.97	756.21	946.16	2306.07	2238.22	427.52	943.55	1409.33	2582.3	1196.18	951.0	671.8	1210.79	1265.94	585.71	1903.94	1312.47	1527.34	796.17	1387.52	1300.65	2440.85	765.68	2530.13	1017.99	278.36	1068.89	1776.36	1209.81	1235.73	877.86	1038.26	1111.98	1186.41	793.09	1821.94	2249.5	1997.3	1079.47	803.48	1576.42	1937.2	789.48	1359.3	945.66	904.4	1018.45	1469.92	1815.06	1416.16	693.27	2207.11	1752.43	2425.64	1154.04	2242.86	1859.55	751.49	375.66	1986.83	1994.26	1476.02	1137.42	2379.41	645.8	909.42	2427.0	1532.77	1264.3	1117.63	687.01	1853.8	616.86	2005.88	2362.84	1088.96	1859.45	1770.32	1861.57	2048.7	688.77		1155.86	1146.33	2414.5	1007.81	1891.69	1459.09	1968.41	2082.42	720.07	2029.9	1320.44	1364.73	2275.43	747.89	1982.5	1028.23	2020.19	1484.37	1256.88	1099.86	985.84	1666.7	1902.36	517.94	647.01	876.01	388.8	1246.86	2227.94	1302.75	876.27	2416.82	1264.29	1586.31	
740.56	2335.34	2178.08	1205.34	3408.84	2154.24	575.01	2490.36	597.0	1341.5	1599.11	796.91	1466.47	1394.83	1239.86	919.07	2696.96	678.52	1186.97	1694.0	2635.42	2494.26	2618.05	165.68	2791.23	379.67	1115.07	3203.68	574.91	2182.2	1861.84	143.11	1662.38	2968.33	2361.23	1544.0	630.83	3206.56	3115.95	857.83	2099.3	1934.5	3571.14	1127.93	1613.7	490.81	1932.92	1419.7	756.17	2899.54	1035.17	1616.11	711.53	2255.86	1854.57	3365.89	1579.93	3243.96	2155.47	1430.24	381.62	2706.19	1040.23	1700.23	1714.71	1146.69	1773.25	2283.68	1826.63	2941.17	3169.07	2926.06	2195.15	1641.09	2367.12	3053.48	1839.63	589.96	1477.6	1875.67	1691.37	684.19	2736.32	1509.06	931.21	3210.86	2034.14	3241.94	2309.08	2881.8	2943.99	1292.32	999.51	3066.4	3051.96	1779.69	1770.0	3144.97	1247.31	1685.07	3318.25	2640.88	1327.21	2002.62	1129.61	2490.4	1430.23	2783.44	3101.5	1548.02	2979.35	2505.85	2683.76	2753.3	1740.04	1155.86		2274.83	3358.98	768.46	3014.21	2610.5	3049.08	3008.36	442.37	2893.95	1038.45	1365.7	3380.62	1517.0	3116.92	246.52	3011.95	2268.58	902.5	1870.04	373.6	2553.2	3037.81	1667.19	1265.01	359.05	1181.63	1843.13	2946.33	856.0	1739.62	3225.58	2121.63	1779.75	
1918.11	1071.46	114.54	1070.08	2046.74	1526.08	2640.01	2015.61	2250.68	1189.47	1881.66	1502.41	1578.18	975.2	1673.48	1955.56	2319.87	1674.8	1312.75	1939.19	710.0	1906.91	995.47	2109.25	2407.51	2270.91	1512.79	2168.14	1776.85	755.55	1579.7	2207.2	998.89	2517.89	1010.34	964.0	1892.64	2093.04	2080.93	1555.1	396.74	1968.95	2141.33	1859.09	1105.27	1784.26	1640.85	1718.17	1571.18	1583.54	2055.07	1905.39	1914.98	1518.73	1874.6	2155.71	923.89	2575.47	138.36	870.62	2101.32	1640.01	1932.78	1917.17	1361.82	1669.64	1662.91	862.81	529.65	1122.75	2011.34	1799.23	103.74	877.71	1753.0	1226.31	966.73	2330.92	1706.24	1149.09	1093.94	2423.24	1683.72	1841.84	1755.24	1795.35	1849.76	2335.97	414.09	2441.7	1293.95	1256.17	1299.43	1407.62	1483.3	1672.77	1163.95	2377.28	1213.13	949.87	2208.3	976.31	1792.84	1365.87	1355.67	2148.77	1342.3	2068.55	2403.37	1837.4	1148.38	1960.77	1893.89	2205.29	973.4	1146.33	2274.83		2095.13	1879.98	1160.73	630.04	1389.58	1868.82	1855.19	1945.29	2062.53	1890.75	1553.12	1412.88	1171.44	2106.5	1678.68	1706.58	2067.52	956.26	2132.17	1651.24	1099.18	634.74	1195.97	1952.33	1132.14	1239.05	2324.63	2144.59	1324.29	2340.87	1474.91	1841.78	
2649.77	1156.06	2173.4	2497.22	140.03	1209.77	3909.56	1056.9	3676.99	2980.1	3786.81	2668.23	1905.41	2716.89	2139.38	3576.53	1108.67	3091.85	3025.96	1831.13	1411.15	977.06	1100.43	3233.43	1103.72	3577.15	2245.29	310.93	3149.46	1462.83	1517.24	3381.97	2945.48	1045.76	1177.78	2835.64	3351.48	219.58	333.42	2523.51	1815.62	1616.02	281.09	3584.02	3038.47	2977.44	1461.06	3573.78	2996.35	532.16	3721.31	3813.55	2672.94	1104.94	1638.86	83.38	2809.58	827.51	2054.01	2259.12	3422.8	653.7	3612.93	1812.39	1645.05	3407.49	1627.89	1323.78	2462.05	1054.78	205.12	432.95	2174.9	2792.71	1041.74	1001.99	1627.6	3735.83	1927.05	1520.22	3060.23	3851.02	622.66	3720.5	2439.7	318.15	3875.24	489.03	1690.19	1044.23	830.38	3029.64	2780.32	751.65	641.92	3651.25	3160.49	659.41	2939.09	2902.16	216.12	1118.92	3607.17	1357.62	3038.46	1168.41	1935.5	753.17	744.88	1913.76	1049.03	999.14	747.13	921.08	1726.53	2414.5	3358.98	2095.13		3422.05	1062.35	1496.73	764.44	351.77	2951.05	520.02	3729.35	3712.13	889.52	1842.04	1163.29	3335.63	422.98	1131.56	3671.2	2983.23	3025.38	810.05	1183.08	2147.14	2929.99	3205.31	2717.06	3256.8	826.36	3716.58	1622.5	515.05	1238.53	3805.68	
1181.08	2290.9	1768.68	944.52	3441.38	2294.03	820.31	2732.48	388.03	732.61	835.15	805.03	1701.39	905.25	1530.26	190.71	2991.62	346.73	582.69	2050.13	2409.32	2700.51	2495.91	669.99	3092.27	502.48	1307.7	3332.13	339.37	2047.0	2061.15	627.94	1037.43	3263.22	2291.99	970.16	147.05	3309.75	3238.29	1013.27	1835.51	2263.38	3588.69	365.3	960.3	605.18	2145.57	651.7	429.09	2911.17	346.16	853.73	1149.73	2377.0	2163.06	3447.37	1012.16	3491.27	1790.04	1200.39	394.59	2781.21	295.62	2047.32	1841.7	389.0	2014.86	2175.06	1361.72	2780.23	3255.09	3002.95	1783.27	1072.82	2547.52	2896.68	1796.96	470.67	1768.2	1907.12	1029.31	548.29	2819.09	743.35	1267.86	3212.88	1265.68	3414.66	2045.59	3173.11	2844.47	667.51	654.12	2972.85	2989.49	1013.84	1080.71	3354.78	676.78	1073.48	3429.96	2507.08	559.46	2105.77	531.86	2774.98	1550.83	2980.28	3329.97	1885.19	2816.32	2727.18	2846.44	3000.0	1696.55	1007.81	768.46	1879.98	3422.05		2844.87	2361.79	2954.06	3088.1	721.06	3026.1	352.93	606.03	3240.75	1673.88	2916.58	523.75	3027.41	2451.3	255.02	1227.42	979.22	2664.01	2836.21	1388.5	695.24	474.22	772.35	1133.36	3186.79	295.26	1849.58	3403.98	2248.36	1012.08	
2426.66	755.46	1261.8	1909.27	973.28	1250.4	3494.29	1517.07	3170.9	2252.09	3011.0	2228.23	1775.6	1999.23	1982.22	2962.9	1751.37	2562.13	2340.97	1936.99	460.49	1389.67	413.27	2860.86	1804.19	3129.66	1965.16	1246.97	2645.81	832.12	1511.09	2992.37	2128.41	1841.37	699.88	2057.73	2814.61	1145.63	1185.11	2164.9	1020.99	1822.18	1027.31	2913.14	2231.89	2552.25	1512.91	2826.21	2456.25	691.13	3087.1	3036.06	2438.92	1163.87	1778.47	1139.18	2022.92	1761.46	1167.87	1651.85	2960.25	922.53	2967.92	1912.49	1462.22	2724.21	1640.09	737.11	1632.38	76.61	1059.85	946.71	1257.53	1989.2	1310.97	67.36	1190.26	3243.2	1863.17	1219.8	2233.23	3350.28	949.83	2961.01	2215.04	744.59	3009.54	1446.81	825.78	1794.04	271.03	2312.98	2195.99	311.24	428.44	2822.82	2314.25	1556.76	2243.02	2080.49	1234.79	381.61	2885.18	1242.16	2369.95	1672.47	1662.26	1385.63	1616.07	1929.75	40.31	1443.38	1240.88	1574.69	1283.74	1891.69	3014.21	1160.73	1062.35	2844.87		533.03	300.01	977.64	2572.6	1156.06	3095.04	2988.02	402.85	1636.4	151.56	2915.78	724.61	1335.07	3070.01	2112.46	2755.02	1059.32	127.02	1457.64	2229.26	2765.73	2076.36	2395.37	1606.14	3134.05	1421.15	1462.57	1232.03	2989.21	
2098.83	672.49	729.04	1448.15	1435.41	1221.1	3053.92	1632.36	2705.05	1736.52	2482.2	1813.78	1549.98	1490.31	1719.39	2467.51	1915.61	2100.61	1834.91	1812.98	85.59	1509.24	433.66	2450.46	1989.75	2684.52	1642.27	1609.75	2191.49	513.73	1393.71	2571.72	1598.17	2069.6	596.25	1533.86	2344.97	1523.45	1529.86	1789.97	527.87	1763.71	1519.54	2403.66	1702.39	2130.74	1426.04	2302.05	1993.83	1014.19	2584.88	2506.99	2105.38	1171.77	1692.32	1563.45	1497.79	2068.23	636.05	1196.6	2513.27	1137.68	2464.2	1788.49	1257.33	2213.68	1509.23	512.01	1103.8	492.71	1438.44	1254.43	725.17	1461.58	1381.93	597.61	892.86	2780.61	1660.98	1001.18	1701.67	2883.44	1177.81	2434.44	1899.71	1186.91	2476.96	1793.34	316.21	2004.53	674.93	1799.3	1725.3	782.2	866.63	2290.2	1781.45	1863.22	1735.56	1549.97	1631.67	400.31	2365.12	1128.0	1867.92	1782.12	1375.41	1603.42	1903.81	1760.75	518.79	1565.86	1433.9	1768.52	962.01	1459.09	2610.5	630.04	1496.73	2361.79	533.03		764.68	1312.88	2169.45	1430.83	2592.72	2466.95	931.49	1389.54	564.93	2485.56	1094.7	1367.17	2576.76	1579.46	2390.68	1202.79	486.9	978.62	1720.8	2331.99	1589.45	1862.35	1852.6	2645.27	1213.95	1802.63	1182.44	2456.98	
2415.32	717.28	1481.37	2009.72	682.45	1114.26	3555.83	1295.37	3259.18	2408.9	3191.05	2283.05	1718.9	2149.15	1940.51	3085.56	1503.35	2652.18	2482.94	1817.82	681.32	1170.91	459.57	2902.8	1547.39	3198.47	1961.6	949.67	2728.07	907.06	1405.76	3041.22	2317.86	1569.9	687.93	2231.33	2909.87	847.04	891.33	2191.52	1181.58	1672.58	755.17	3055.23	2418.17	2607.26	1391.03	2994.96	2548.52	421.74	3217.76	3216.85	2431.17	1014.73	1644.65	840.19	2199.52	1470.49	1374.24	1753.82	3032.34	686.29	3101.42	1794.09	1408.56	2869.19	1535.77	782.08	1821.46	291.82	761.64	668.43	1479.7	2172.01	1119.13	244.97	1210.09	3327.67	1789.7	1191.3	2427.4	3438.23	705.2	3134.88	2199.96	446.29	3222.77	1150.7	1012.92	1528.85	109.64	2466.23	2300.03	19.1	129.65	3021.24	2516.49	1267.39	2387.94	2271.31	934.81	454.34	3045.13	1152.92	2506.28	1448.4	1646.89	1126.0	1330.53	1835.32	284.61	1221.16	996.04	1319.32	1310.86	1968.41	3049.08	1389.58	764.44	2954.06	300.01	764.68		689.53	2612.68	882.37	3225.79	3149.39	362.77	1598.09	420.43	2973.52	433.79	1161.24	3189.27	2322.98	2763.47	848.01	424.61	1586.55	2375.74	2828.19	2198.84	2604.04	1332.25	3247.48	1371.3	1167.39	1108.23	3184.01	
2298.0	857.95	1935.48	2172.8	428.55	858.0	3560.68	752.19	3334.64	2674.18	3484.46	2325.3	1553.64	2412.12	1787.61	3246.39	873.72	2754.49	2711.18	1489.75	1229.21	655.08	885.57	2884.02	896.74	3230.76	1895.48	299.54	2809.16	1181.78	1165.91	3032.96	2661.35	892.44	893.46	2542.79	3013.4	232.61	217.11	2175.94	1553.11	1282.31	598.57	3262.4	2750.36	2631.72	1111.11	3266.63	2660.76	300.96	3393.26	3511.41	2321.21	753.4	1297.82	361.02	2519.27	783.96	1810.41	1941.6	3077.91	307.74	3287.05	1470.21	1295.46	3089.16	1277.84	1045.77	2189.39	945.31	167.07	85.15	1939.2	2507.0	698.72	931.07	1301.78	3392.17	1576.23	1181.59	2777.46	3507.66	273.13	3414.9	2088.05	357.26	3596.77	481.81	1455.47	862.23	710.11	2720.87	2452.07	684.78	562.27	3363.27	2882.21	579.15	2627.28	2619.88	354.68	914.19	3294.57	1008.73	2720.64	883.11	1587.42	488.72	641.04	1566.34	952.45	686.44	426.86	680.66	1398.05	2082.42	3008.36	1868.82	351.77	3088.1	977.64	1312.88	689.53		2602.7	225.08	3401.27	3399.25	946.22	1491.75	1109.16	2988.28	255.88	785.07	3338.93	2714.84	2673.72	458.33	1104.65	1847.42	2619.17	2859.61	2398.01	2982.2	653.98	3381.81	1274.04	493.33	887.19	3513.3	
463.06	1901.65	1763.19	787.55	2994.14	1757.82	958.95	2134.0	783.53	1048.36	1517.23	358.42	1090.81	1036.36	882.18	910.43	2365.43	443.92	910.76	1382.45	2193.46	2123.92	2178.12	290.13	2463.41	636.52	711.2	2812.61	390.63	1740.49	1480.89	432.71	1353.75	2638.85	1924.82	1213.73	580.92	2808.25	2722.56	428.9	1661.41	1611.82	3153.93	1068.69	1327.06	131.05	1558.09	1300.79	463.21	2478.11	1061.32	1539.41	431.15	1855.18	1520.31	2962.6	1244.14	2895.3	1731.42	997.32	504.95	2297.37	1015.04	1383.7	1307.93	1012.33	1407.16	1843.59	1435.99	2499.79	2765.94	2519.18	1780.57	1301.85	1986.24	2612.45	1402.59	822.19	1127.06	1449.55	1406.35	937.5	2329.65	1422.62	585.43	2789.13	1905.76	2865.23	1869.98	2550.08	2506.83	1014.56	632.77	2630.2	2619.34	1630.19	1502.81	2780.95	943.3	1367.0	2922.92	2200.29	1235.95	1593.97	858.96	2152.44	1015.55	2412.14	2744.39	1223.13	2537.93	2141.35	2299.87	2401.11	1302.08	720.07	442.37	1855.19	2951.05	721.06	2572.6	2169.45	2612.68	2602.7		2502.05	1067.34	1304.41	2941.12	1114.77	2674.63	389.17	2591.87	1887.41	947.53	1562.39	328.47	2152.51	2595.48	1236.22	958.34	288.86	812.15	1592.08	2593.0	942.5	1328.71	2850.72	1720.97	1672.28	
2170.08	888.96	2001.29	2134.05	625.87	744.47	3455.0	540.27	3251.96	2660.35	3471.53	2245.02	1428.42	2401.64	1659.31	3191.37	649.22	2686.36	2684.41	1317.42	1350.6	457.19	997.16	2777.33	676.14	3135.88	1790.92	310.56	2733.69	1220.26	1033.59	2927.83	2674.67	687.6	939.98	2546.68	2942.57	322.87	222.34	2080.61	1602.14	1097.66	792.12	3222.31	2758.52	2541.1	968.33	3248.14	2597.04	465.18	3341.64	3498.66	2195.07	651.56	1125.4	497.02	2526.39	637.76	1872.96	1916.64	2988.5	305.5	3239.68	1299.57	1198.4	3055.04	1133.94	1092.55	2219.13	1114.55	315.37	214.97	2006.87	2519.6	536.31	1116.06	1272.48	3305.66	1435.42	1126.78	2791.57	3421.72	261.6	3397.94	1965.36	582.33	3611.71	407.65	1532.09	648.47	885.04	2702.79	2404.33	880.37	760.51	3368.46	2900.66	434.25	2605.4	2635.57	425.68	1031.68	3268.27	921.59	2689.13	663.21	1494.48	263.69	473.85	1409.17	1126.91	479.83	228.21	456.51	1361.57	2029.9	2893.95	1945.29	520.02	3026.1	1156.06	1430.83	882.37	225.08	2502.05		3349.57	3372.15	1163.03	1387.55	1295.46	2890.47	459.98	631.75	3279.48	2744.76	2548.7	363.24	1282.08	1849.3	2598.79	2768.25	2366.58	3004.04	450.56	3317.1	1183.5	405.87	783.99	3512.73	
1529.63	2585.51	1948.36	1233.23	3741.71	2624.74	891.69	3073.53	487.88	873.22	605.19	1151.8	2048.6	1103.31	1881.8	164.44	3337.05	694.44	758.24	2402.18	2647.48	3037.37	2766.22	974.5	3437.99	692.77	1656.15	3653.04	691.89	2322.41	2401.83	895.91	1121.71	3607.87	2580.37	1104.97	486.47	3626.04	3558.64	1363.91	2075.1	2613.68	3884.43	219.33	1024.69	955.79	2487.02	509.14	764.92	3211.12	8.06	615.34	1497.98	2703.96	2512.54	3758.41	1146.84	3829.87	1989.79	1479.99	660.55	3096.0	129.77	2399.06	2175.91	397.2	2360.14	2455.14	1533.07	3034.08	3568.32	3316.22	1961.12	1200.85	2881.92	3150.22	2101.84	547.3	2118.49	2224.84	1076.55	553.84	3135.06	530.42	1620.75	3507.75	1061.13	3742.78	2278.83	3517.67	3116.26	806.37	949.33	3244.78	3269.95	856.7	1089.88	3688.84	858.09	1166.23	3747.16	2773.73	392.76	2432.91	725.44	3120.22	1888.77	3314.28	3666.71	2237.02	3068.98	3065.81	3176.16	3340.37	2003.75	1320.44	1038.45	2062.53	3729.35	352.93	3095.04	2592.72	3225.79	3401.27	1067.34	3349.57		375.43	3495.53	2014.11	3155.17	811.83	3327.14	2786.73	136.08	1277.41	1302.57	2986.52	3075.54	1641.51	873.61	802.55	1027.26	1108.95	3525.65	202.94	2181.28	3733.06	2577.55	799.56	
1750.4	2556.41	1776.72	1241.39	3710.41	2674.23	1267.11	3151.28	855.64	740.6	235.75	1292.89	2165.24	1002.15	2029.35	448.75	3430.98	873.91	688.39	2548.18	2530.3	3100.78	2693.44	1275.74	3532.57	1047.88	1787.27	3666.84	913.93	2265.57	2485.76	1223.0	898.53	3696.43	2540.26	933.79	752.54	3629.12	3571.81	1516.57	1972.13	2741.43	3843.34	240.79	792.63	1178.71	2572.56	181.01	905.06	3183.83	374.13	250.78	1720.51	2742.33	2635.67	3748.88	971.28	3893.26	1839.57	1458.18	984.57	3100.52	327.39	2541.66	2242.54	329.8	2462.95	2403.23	1368.96	2933.05	3565.03	3315.17	1787.09	1013.51	2939.11	3047.35	2101.69	919.96	2252.12	2248.67	823.55	928.95	3141.8	155.03	1803.02	3468.03	688.27	3774.49	2162.32	3606.39	3041.2	685.29	994.62	3168.5	3207.24	485.31	803.52	3738.15	773.04	947.12	3751.47	2695.19	105.02	2475.63	683.9	3214.89	1972.81	3366.17	3724.74	2382.46	2965.79	3134.87	3216.78	3413.38	2010.63	1364.73	1365.7	1890.75	3712.13	606.03	2988.02	2466.95	3149.39	3399.25	1304.41	3372.15	375.43		3390.87	2103.03	3031.57	1125.18	3298.26	2848.17	496.33	1011.84	1582.11	3010.25	2953.86	1572.35	782.37	1078.51	1005.7	795.93	3591.84	576.09	2240.64	3767.51	2623.52	426.71	
2763.95	1064.96	1657.25	2301.38	766.06	1476.2	3874.17	1625.74	3560.87	2654.81	3412.67	2603.36	2077.3	2401.41	2296.38	3361.91	1806.79	2952.03	2742.57	2180.09	862.18	1504.98	763.22	3230.76	1839.13	3512.29	2306.71	1149.31	3033.1	1208.61	1768.5	3365.88	2529.32	1837.55	1026.27	2460.37	3206.51	1040.45	1114.82	2525.36	1422.97	2031.06	757.57	3315.02	2633.19	2928.07	1753.5	3228.89	2846.74	737.05	3487.58	3437.62	2778.68	1375.58	2005.75	972.85	2425.39	1687.61	1567.52	2043.77	3344.03	1018.94	3368.77	2156.43	1765.56	3126.3	1898.52	1097.74	2033.93	461.49	964.27	950.72	1652.04	2391.14	1468.05	345.32	1542.73	3631.92	2150.68	1541.12	2633.16	3740.29	1030.33	3363.33	2549.35	612.61	3402.76	1350.68	1228.6	1808.28	450.72	2715.54	2589.71	350.89	434.19	3221.13	2712.15	1495.43	2644.88	2481.22	1096.25	743.34	3288.03	1514.42	2770.84	1775.19	1994.92	1421.58	1569.57	2197.93	426.69	1552.14	1312.12	1616.6	1641.03	2275.43	3380.62	1553.12	889.52	3240.75	402.85	931.49	362.77	946.22	2941.12	1163.03	3495.53	3390.87		1952.33	390.66	3293.37	705.02	1516.06	3468.4	2508.18	3105.79	1191.88	455.67	1855.96	2631.27	3145.23	2474.49	2791.18	1599.51	3531.2	1727.39	1372.43	1470.89	3388.28	
825.56	889.21	1382.45	896.4	1893.21	643.13	2070.29	1059.42	1869.76	1475.87	2247.26	872.81	167.07	1258.2	345.93	1851.06	1329.11	1327.72	1446.01	552.47	1375.32	1028.12	1223.22	1392.95	1430.62	1748.4	404.32	1698.09	1362.23	876.87	387.72	1542.56	1615.03	1597.12	937.36	1454.93	1575.89	1693.94	1607.82	694.05	1044.01	670.6	2056.95	1918.47	1664.99	1155.59	473.2	2012.18	1249.3	1392.43	2006.47	2274.11	844.81	740.96	561.41	1850.28	1453.13	1817.42	1277.47	785.29	1602.66	1189.22	1916.29	534.34	199.02	1773.79	364.26	918.55	1321.05	1559.8	1653.45	1409.17	1398.11	1475.11	880.0	1659.23	498.91	1920.79	293.44	416.6	1723.72	2036.98	1219.42	2161.88	610.05	1702.75	2492.71	1757.11	1182.0	1506.88	1501.95	1497.36	1108.64	1613.48	1577.48	2219.39	1843.87	1684.95	1391.81	1592.36	1808.2	1256.88	2004.93	486.38	1432.94	1112.54	131.06	1311.52	1657.04	427.66	1597.23	1053.43	1189.04	1326.45	450.87	747.89	1517.0	1412.88	1842.04	1673.88	1636.4	1389.54	1598.09	1491.75	1114.77	1387.55	2014.11	2103.03	1952.33		1766.81	1502.94	1502.21	782.08	1928.85	1762.81	1191.38	1038.54	1695.84	890.52	1391.81	1381.91	1134.34	1954.93	1512.93	1956.64	229.65	1744.03	606.61	2333.59	
2546.51	894.43	1278.4	1989.59	1062.82	1399.37	3585.52	1667.58	3251.38	2301.34	3043.12	2326.01	1909.75	2053.91	2111.98	3027.59	1898.72	2643.74	2398.03	2082.4	508.06	1540.29	546.64	2961.31	1949.71	3218.69	2084.36	1368.48	2730.56	938.24	1655.47	3089.82	2158.26	1982.4	834.76	2098.15	2892.97	1264.47	1311.68	2273.37	1082.15	1971.42	1096.45	2967.8	2263.23	2648.62	1659.6	2865.92	2537.3	830.48	3147.31	3067.63	2557.64	1314.1	1926.09	1242.91	2061.7	1890.91	1196.17	1733.51	3048.36	1070.44	3027.0	2057.83	1597.18	2777.95	1783.93	856.18	1666.34	220.76	1179.79	1083.72	1272.12	2024.29	1462.53	179.4	1308.22	3325.2	2000.66	1350.7	2259.31	3430.47	1096.49	2997.14	2336.68	849.64	3019.0	1570.18	876.37	1937.23	414.04	2363.94	2272.89	427.24	549.64	2843.45	2334.34	1687.61	2298.98	2109.73	1346.75	510.6	2929.89	1385.15	2429.88	1822.89	1786.48	1529.99	1749.81	2071.13	190.22	1593.78	1388.2	1720.34	1398.28	1982.5	3116.92	1171.44	1163.29	2916.58	151.56	564.93	420.43	1109.16	2674.63	1295.46	3155.17	3031.57	390.66	1766.81		3009.92	853.81	1486.34	3136.09	2127.69	2867.66	1210.07	80.53	1528.41	2284.45	2858.41	2145.03	2410.47	1746.02	3202.83	1555.5	1587.29	1379.78	3011.77	
809.59	2269.04	2005.0	1048.67	3375.86	2146.07	582.49	2521.37	421.38	1113.5	1357.19	690.61	1479.33	1190.5	1267.17	682.07	2748.26	457.2	956.88	1757.19	2517.24	2512.76	2530.69	167.8	2845.47	248.02	1099.98	3201.01	349.95	2085.94	1870.02	115.26	1435.34	3021.49	2287.46	1325.35	384.44	3195.52	3110.7	812.35	1964.41	1990.87	3534.19	885.93	1381.19	366.31	1946.97	1174.04	547.95	2856.5	807.8	1374.88	777.6	2242.64	1902.24	3348.61	1362.97	3282.0	1993.59	1290.67	154.31	2682.2	802.18	1760.06	1694.84	900.17	1795.07	2196.81	1635.58	2844.74	3152.12	2904.45	2021.61	1424.81	2375.4	2959.09	1766.28	444.62	1511.58	1826.86	1457.9	556.99	2715.15	1266.26	964.47	3166.9	1789.07	3254.39	2176.9	2933.17	2866.29	1060.99	810.45	2991.42	2986.55	1533.38	1532.36	3169.51	1024.02	1460.75	3310.68	2550.18	1083.15	1979.83	899.18	2536.47	1400.96	2801.11	3132.21	1601.32	2882.57	2529.71	2688.95	2788.06	1664.36	1028.23	246.52	2106.5	3335.63	523.75	2915.78	2485.56	2973.52	2988.28	389.17	2890.47	811.83	1125.18	3293.37	1502.94	3009.92		2970.98	2276.58	677.5	1641.19	506.48	2539.7	2929.92	1520.6	1042.24	154.9	987.86	1602.49	2980.24	642.93	1714.42	3239.86	2108.57	1535.79	
2325.17	743.27	1754.08	2093.92	414.57	908.01	3550.09	935.73	3296.8	2563.57	3368.24	2292.37	1588.94	2300.2	1822.23	3176.82	1101.84	2703.21	2614.0	1590.74	1009.52	821.77	683.34	2878.58	1135.11	3208.35	1897.99	527.0	2766.08	1041.72	1221.94	3024.53	2523.22	1143.41	759.0	2414.97	2963.43	432.11	460.68	2162.98	1392.68	1406.2	564.16	3176.12	2616.74	2608.25	1182.58	3157.21	2605.12	116.25	3319.09	3394.88	2345.78	799.01	1403.18	477.62	2388.38	1037.55	1633.36	1850.77	3049.71	357.05	3208.69	1569.1	1303.22	2997.35	1344.79	902.56	2039.1	696.44	345.98	246.0	1756.09	2370.72	818.49	676.25	1230.71	3358.66	1631.43	1144.25	2637.77	3472.88	352.43	3303.17	2110.83	201.19	3452.34	723.79	1270.69	1108.08	460.69	2614.36	2380.13	428.9	306.43	3229.28	2737.66	833.82	2525.51	2479.7	537.01	705.27	3193.24	1017.81	2628.49	1080.1	1581.73	716.59	896.91	1644.05	701.09	863.93	613.64	911.63	1331.84	2020.19	3011.95	1678.68	422.98	3027.41	724.61	1094.7	433.79	255.88	2591.87	459.98	3327.14	3298.26	705.02	1502.21	853.81	2970.98		887.39	3273.9	2560.31	2693.59	542.46	851.53	1729.45	2515.89	2835.26	2308.6	2833.83	904.9	3322.59	1274.75	738.63	923.01	3384.41	
1540.12	695.07	1728.86	1610.23	1212.4	189.91	2833.81	323.21	2650.92	2171.32	2971.89	1653.98	802.31	1925.59	1030.34	2624.98	629.86	2106.32	2170.29	707.85	1308.88	252.61	995.47	2156.97	726.29	2523.63	1178.0	938.03	2143.85	957.55	407.38	2308.15	2242.34	868.89	771.12	2097.01	2356.87	952.5	853.7	1473.99	1315.61	520.63	1382.4	2678.23	2312.83	1935.65	337.17	2740.84	2024.01	805.72	2778.97	2999.06	1565.66	196.06	517.6	1122.09	2084.31	1045.91	1600.22	1427.43	2381.83	530.46	2684.11	687.38	610.91	2522.59	502.22	880.62	1840.61	1267.51	929.43	713.87	1739.27	2089.91	98.86	1325.56	822.0	2700.53	803.72	634.91	2358.16	2816.73	540.97	2891.68	1337.93	1079.38	3165.88	977.82	1331.07	781.96	1102.55	2204.66	1858.66	1169.71	1084.35	2905.58	2474.43	903.72	2101.94	2209.57	1057.23	1038.51	2746.78	387.42	2166.38	442.83	900.88	529.64	880.22	782.21	1296.13	289.92	415.25	568.7	883.76	1484.37	2268.58	1706.58	1131.56	2451.3	1335.07	1367.17	1161.24	785.07	1887.41	631.75	2786.73	2848.17	1516.06	782.08	1486.34	2276.58	887.39		2706.26	2348.67	1919.2	345.25	1440.02	1422.84	2098.31	2160.74	1850.36	2583.23	743.68	2736.69	608.33	963.62	244.88	3036.35	
1410.59	2535.1	1954.22	1183.81	3688.22	2548.54	778.58	2987.31	359.35	886.14	730.44	1059.22	1954.86	1096.35	1780.12	112.2	3245.51	601.37	754.78	2298.68	2628.05	2955.52	2730.13	841.34	3346.05	558.46	1560.74	3585.0	583.61	2283.01	2316.06	760.07	1159.65	3517.32	2533.74	1123.71	370.6	3561.49	3491.02	1264.83	2053.98	2514.49	3833.93	296.64	1068.54	841.27	2400.4	608.94	683.23	3157.68	133.28	742.47	1378.68	2630.94	2414.96	3697.67	1166.11	3746.25	1987.04	1436.55	525.41	3032.42	187.26	2296.49	2096.54	436.98	2268.95	2413.25	1540.66	3007.08	3505.98	3253.79	1967.8	1223.26	2802.43	3123.49	2044.51	425.04	2019.52	2158.78	1127.16	448.9	3070.63	650.56	1511.07	3457.67	1184.6	3668.92	2261.23	3427.25	3079.63	818.51	894.66	3208.16	3228.47	967.46	1153.66	3609.7	854.57	1201.57	3681.96	2739.66	495.29	2359.68	713.82	3028.95	1805.84	3235.18	3584.98	2134.27	3042.64	2982.18	3100.89	3254.89	1944.8	1256.88	902.5	2067.52	3671.2	255.02	3070.01	2576.76	3189.27	3338.93	947.53	3279.48	136.08	496.33	3468.4	1928.85	3136.09	677.5	3273.9	2706.26		1329.2	1171.91	2917.12	3056.01	1612.55	871.58	675.69	993.91	1183.91	3441.77	90.38	2104.14	3658.38	2502.64	923.01	
1848.67	1861.23	851.0	938.19	2952.75	2159.1	2047.73	2671.73	1612.76	528.55	951.32	1309.08	1891.04	562.58	1864.03	1222.63	2976.64	1191.61	684.32	2306.21	1654.98	2587.96	1894.48	1717.89	3074.52	1714.42	1624.77	3006.67	1295.58	1533.25	2079.66	1756.2	209.24	3214.84	1821.41	357.39	1305.73	2946.63	2913.98	1484.4	1167.63	2428.42	3062.56	1058.17	267.15	1444.17	2161.34	830.87	1122.2	2454.28	1271.38	972.62	1830.15	2193.21	2320.13	3034.92	337.73	3340.32	949.18	977.58	1569.76	2445.6	1156.36	2290.75	1821.05	892.26	2110.46	1669.21	526.09	2069.72	2871.03	2636.71	856.19	296.51	2421.84	2176.97	1527.06	1694.77	2012.29	1714.64	202.04	1757.52	2489.7	928.53	1779.8	2701.39	899.8	3150.95	1310.84	3129.46	2221.35	580.63	938.78	2341.62	2404.7	718.78	216.54	3157.42	625.42	198.48	3067.19	1884.59	929.25	1962.85	742.02	2775.31	1642.39	2809.02	3165.61	2158.43	2097.56	2634.16	2640.39	2906.26	1468.46	1099.86	1870.04	956.26	2983.23	1227.42	2112.46	1579.46	2322.98	2714.84	1562.39	2744.76	1277.41	1011.84	2508.18	1762.81	2127.69	1641.19	2560.31	2348.67	1329.2		1890.15	2405.75	2055.16	926.03	608.67	1511.0	777.28	283.01	3058.69	1418.02	1800.16	3150.55	2104.13	889.33	
379.33	2046.2	2046.54	1080.84	3082.29	1816.02	946.85	2128.58	923.82	1376.75	1804.67	636.3	1121.45	1358.3	889.4	1158.73	2327.89	755.28	1237.94	1323.87	2405.71	2138.19	2349.18	338.94	2421.32	723.63	802.95	2856.94	681.62	1929.72	1515.2	467.77	1681.72	2598.49	2079.79	1540.04	832.26	2865.04	2771.04	600.81	1902.63	1565.48	3247.14	1341.9	1655.49	453.62	1582.15	1598.3	788.04	2583.55	1297.7	1825.23	353.64	1920.46	1488.52	3028.01	1569.56	2878.15	2003.16	1262.53	659.64	2375.86	1273.29	1330.95	1390.39	1310.81	1419.32	2018.17	1741.65	2680.13	2831.62	2592.87	2064.16	1626.46	2017.07	2789.1	1565.91	934.86	1119.9	1575.08	1734.79	1038.98	2403.73	1710.74	585.68	2894.07	2210.36	2886.81	2104.34	2512.5	2661.42	1342.21	956.75	2780.06	2755.88	1939.05	1830.72	2784.43	1271.77	1694.25	2974.17	2375.7	1523.6	1676.87	1185.36	2123.14	1120.32	2426.86	2738.52	1181.42	2718.41	2147.16	2334.13	2389.42	1471.28	985.84	373.6	2132.17	3025.38	979.22	2755.02	2390.68	2763.47	2673.72	328.47	2548.7	1302.57	1582.11	3105.79	1191.38	2867.66	506.48	2693.59	1919.2	1171.91	1890.15		2216.07	2790.32	1501.32	1286.8	505.1	1133.16	1919.0	2582.41	1145.68	1419.42	2869.58	1787.19	1969.36	
1839.91	579.83	1695.64	1771.31	878.21	400.05	3108.83	458.05	2894.98	2301.79	3112.47	1886.61	1095.47	2044.49	1329.35	2828.53	716.18	2325.18	2322.9	1051.5	1131.24	330.44	784.66	2431.45	787.11	2783.82	1442.85	668.4	2374.24	903.35	708.03	2581.09	2326.62	873.4	644.11	2194.59	2582.08	655.81	575.19	1727.95	1286.3	863.88	1047.34	2859.18	2407.82	2186.75	656.22	2887.89	2235.05	465.65	2978.58	3139.63	1863.3	297.61	862.32	812.76	2175.77	937.16	1565.71	1556.4	2633.94	185.41	2876.46	1030.46	844.87	2692.38	822.35	788.45	1882.29	999.52	616.01	379.97	1702.99	2171.62	279.08	1038.7	913.22	2950.11	1119.02	763.63	2443.62	3066.0	197.43	3037.94	1630.5	734.33	3262.68	764.79	1245.79	803.82	805.47	2343.07	2041.09	853.95	757.69	3015.49	2554.65	751.79	2244.92	2288.81	771.88	825.65	2906.53	562.54	2326.91	613.58	1139.78	417.35	762.53	1115.43	1022.86	384.78	242.71	566.68	1000.2	1666.7	2553.2	1651.24	810.05	2664.01	1059.32	1202.79	848.01	458.33	2152.51	363.24	2986.52	3010.25	1191.88	1038.54	1210.07	2539.7	542.46	345.25	2917.12	2405.75	2216.07		1175.01	1498.75	2238.64	2414.38	2004.56	2659.59	673.46	2955.53	826.9	759.16	431.98	3157.42	
2471.1	830.12	1204.92	1909.06	1089.54	1345.62	3505.29	1633.05	3170.85	2222.73	2967.3	2246.41	1840.64	1974.64	2040.48	2947.59	1872.57	2563.22	2318.59	2022.46	428.14	1505.39	480.77	2881.93	1927.05	3138.37	2008.92	1373.21	2650.09	860.61	1594.66	3010.1	2082.64	1966.67	767.87	2020.71	2812.44	1271.37	1311.94	2195.31	1002.03	1917.69	1134.3	2888.68	2187.37	2568.84	1601.68	2788.77	2456.78	817.44	3067.66	2991.92	2481.9	1263.58	1869.35	1260.93	1984.5	1888.47	1120.2	1653.02	2968.0	1043.76	2947.45	1997.82	1528.81	2698.9	1722.39	782.08	1589.75	175.48	1185.75	1073.32	1199.09	1947.68	1420.68	181.22	1232.93	3244.68	1933.6	1280.38	2184.46	3349.94	1072.29	2920.6	2261.91	866.22	2948.18	1573.36	796.89	1918.38	397.2	2285.13	2192.37	434.63	553.81	2769.92	2260.78	1683.77	2219.63	2034.2	1359.02	442.74	2852.0	1323.2	2350.19	1788.59	1712.87	1509.45	1742.94	2007.04	155.77	1559.7	1362.43	1697.54	1321.97	1902.36	3037.81	1099.18	1183.08	2836.21	127.02	486.9	424.61	1104.65	2595.48	1282.08	3075.54	2953.86	455.67	1695.84	80.53	2929.92	851.53	1440.02	3056.01	2055.16	2790.32	1175.01		1447.98	2205.17	2778.31	2064.73	2338.08	1731.89	3122.6	1486.81	1589.28	1323.83	2937.86	
1285.2	992.5	561.1	473.24	2139.81	1233.44	2080.39	1745.82	1726.48	834.5	1639.76	878.93	1041.78	571.2	1087.37	1505.97	2050.62	1122.45	896.93	1442.71	1021.97	1663.67	1127.46	1503.03	2148.53	1710.02	898.04	2128.06	1215.01	693.23	1166.03	1613.35	828.44	2289.92	970.46	697.59	1366.62	2079.68	2033.55	920.36	450.82	1531.81	2271.07	1468.74	909.39	1177.93	1244.76	1427.92	1015.67	1616.16	1633.52	1666.53	1281.21	1270.99	1426.18	2188.36	677.25	2425.93	502.51	239.59	1538.55	1559.77	1516.01	1424.0	911.46	1283.31	1211.57	831.0	435.62	1394.57	2010.49	1765.21	578.74	673.72	1497.27	1510.96	602.08	1802.0	1170.65	788.62	945.39	1904.99	1602.92	1573.74	1130.09	1896.09	1763.92	2256.92	663.7	2204.11	1477.31	887.1	746.71	1605.6	1637.54	1519.5	1058.11	2249.02	803.32	792.02	2202.02	1133.16	1467.42	1036.83	919.8	1849.92	789.26	1892.62	2251.74	1313.27	1430.09	1709.09	1727.3	1982.6	543.3	517.94	1667.19	634.74	2147.14	1388.5	1457.64	978.62	1586.55	1847.42	1236.22	1849.3	1641.51	1572.35	1855.96	890.52	1528.41	1520.6	1729.45	1422.84	1612.55	926.03	1501.32	1498.75	1447.98		792.05	1365.86	618.73	1164.94	2139.14	1676.52	885.95	2253.98	1178.5	1666.52	
1282.79	1774.13	1082.81	496.03	2928.16	1918.21	1496.59	2410.4	1078.97	96.6	875.36	741.62	1484.07	230.53	1398.53	759.7	2700.68	587.18	116.81	1891.85	1777.61	2349.95	1917.7	1110.56	2801.92	1142.81	1148.39	2889.97	693.14	1484.9	1759.36	1156.32	399.54	2959.54	1758.04	285.39	737.36	2849.73	2794.95	944.45	1208.32	2056.19	3061.92	683.94	369.94	837.32	1845.99	649.35	513.64	2401.47	865.89	902.56	1260.67	1979.16	1947.41	2967.38	325.24	3137.62	1117.33	682.25	986.36	2322.37	744.39	1880.88	1505.85	495.07	1756.0	1622.0	670.44	2170.61	2784.53	2535.39	1096.55	387.36	2185.53	2286.18	1326.34	1161.3	1589.67	1482.4	448.97	1243.52	2364.13	799.3	1250.3	2686.28	1106.11	3003.41	1408.34	2870.29	2266.88	106.51	358.44	2394.83	2429.35	829.01	551.81	2975.25	18.87	420.08	2972.17	1921.51	677.36	1717.51	163.38	2487.41	1261.23	2606.39	2966.69	1731.21	2204.67	2387.69	2451.78	2666.8	1238.88	647.01	1265.01	1195.97	2929.99	695.24	2229.26	1720.8	2375.74	2619.17	958.34	2598.79	873.61	782.37	2631.27	1391.81	2284.45	1042.24	2515.89	2098.31	871.58	608.67	1286.8	2238.64	2205.17	792.05		906.34	258.21	650.13	2839.49	949.05	1497.97	2997.55	1865.81	943.19	
744.77	2126.97	1851.29	893.79	3242.22	2024.01	728.96	2414.99	496.28	982.46	1303.77	546.16	1370.31	1043.79	1167.6	654.6	2651.04	319.49	828.18	1671.06	2364.42	2400.7	2383.12	214.7	2749.45	373.16	982.94	3078.56	216.52	1937.05	1756.06	257.78	1303.36	2924.48	2143.4	1186.53	327.2	3069.85	2987.39	687.88	1810.18	1899.47	3399.09	837.9	1255.17	227.9	1835.2	1104.68	401.29	2720.29	797.26	1323.6	712.49	2118.25	1806.88	3220.43	1223.05	3177.01	1838.94	1136.51	221.14	2552.69	768.26	1672.09	1570.2	820.95	1687.74	2049.76	1484.95	2695.1	3024.33	2775.37	1867.96	1284.5	2259.34	2809.75	1623.47	540.11	1412.42	1691.2	1333.06	656.25	2586.58	1210.46	873.95	3030.0	1720.13	3138.01	2022.8	2835.46	2720.55	933.7	658.15	2846.2	2843.73	1455.29	1413.65	3058.53	888.55	1326.33	3186.16	2401.89	1023.9	1852.73	770.92	2437.32	1274.63	2687.9	3024.1	1511.23	2732.83	2420.01	2570.69	2682.65	1521.23	876.01	359.05	1952.33	3205.31	474.22	2765.73	2331.99	2828.19	2859.61	288.86	2768.25	802.55	1078.51	3145.23	1381.91	2858.41	154.9	2835.26	2160.74	675.69	1511.0	505.1	2414.38	2778.31	1365.86	906.34		837.15	1489.48	2873.95	661.37	1587.61	3124.28	1984.71	1473.47	
1071.83	1565.39	1025.9	240.95	2722.73	1672.85	1507.9	2159.64	1125.2	347.31	1122.03	531.92	1225.99	225.27	1145.43	887.92	2447.48	543.77	320.2	1634.51	1637.42	2102.62	1739.29	1017.99	2548.87	1139.25	896.0	2662.3	647.82	1295.23	1504.43	1094.93	577.52	2708.08	1556.4	419.9	764.71	2626.73	2567.3	713.54	1063.38	1798.01	2862.1	867.52	585.12	708.58	1591.21	890.5	442.45	2193.09	1019.22	1149.16	1052.95	1738.01	1689.26	2750.64	443.42	2892.86	1030.42	458.03	970.44	2097.18	904.29	1623.29	1252.74	691.16	1498.6	1428.52	647.84	2013.19	2564.39	2313.54	1041.89	496.79	1939.25	2129.6	1097.53	1203.86	1332.38	1243.28	658.92	1301.19	2138.04	1041.34	1015.65	2485.43	1363.93	2768.81	1273.25	2618.56	2089.27	363.09	182.78	2217.81	2242.91	1087.21	773.53	2734.37	257.47	578.88	2748.89	1747.49	902.14	1473.06	322.9	2233.47	1003.61	2363.51	2723.05	1474.49	2048.79	2138.98	2212.12	2418.09	1005.22	388.8	1181.63	1132.14	2717.06	772.35	2076.36	1589.45	2198.84	2398.01	812.15	2366.58	1027.26	1005.7	2474.49	1134.34	2145.03	987.86	2308.6	1850.36	993.91	777.28	1133.16	2004.56	2064.73	618.73	258.21	837.15		879.48	2593.12	1058.11	1246.57	2761.92	1621.28	1199.44	
1932.9	2125.79	1134.0	1083.61	3229.25	2394.84	1941.09	2905.11	1502.55	554.07	695.63	1391.33	2070.46	702.1	2016.45	1086.69	3207.29	1179.0	681.33	2485.46	1937.61	2826.94	2172.4	1703.24	3306.45	1635.02	1769.55	3271.7	1274.1	1800.76	2292.17	1717.15	342.6	3451.86	2089.19	500.01	1237.13	3214.48	3178.38	1589.45	1442.06	2625.29	3341.3	893.41	296.08	1465.43	2376.04	618.93	1131.39	2726.49	1104.06	714.29	1910.77	2435.71	2516.19	3306.91	503.99	3590.23	1231.08	1176.53	1508.14	2707.63	999.97	2471.82	2032.77	758.33	2311.74	1938.09	794.8	2352.3	3140.14	2902.97	1139.18	493.32	2660.39	2459.81	1766.03	1581.77	2186.05	1948.47	231.23	1628.79	2751.54	688.59	1893.77	2978.28	619.79	3411.22	1591.33	3365.19	2501.81	578.45	1008.23	2622.73	2684.18	440.94	111.07	3411.13	661.53	373.7	3335.61	2163.55	729.8	2195.89	733.73	3001.77	1829.29	3057.24	3415.85	2331.15	2380.31	2871.24	2890.94	3146.24	1699.49	1246.86	1843.13	1239.05	3256.8	1133.36	2395.37	1862.35	2604.04	2982.2	1592.08	3004.04	1108.95	795.93	2791.18	1954.93	2410.47	1602.49	2833.83	2583.23	1183.91	283.01	1919.0	2659.59	2338.08	1164.94	650.13	1489.48	879.48		3304.07	1274.29	2015.66	3409.84	2340.11	612.46	
2206.23	1253.17	2368.56	2353.34	961.43	921.36	3519.48	459.03	3368.55	2910.67	3713.98	2384.73	1503.67	2661.39	1714.02	3363.11	315.33	2840.62	2913.21	1269.37	1775.64	491.07	1421.59	2849.39	282.31	3228.26	1894.62	516.63	2872.68	1575.81	1126.12	3000.85	2966.11	238.58	1316.11	2826.0	3087.34	610.48	506.02	2193.93	1957.94	1026.5	1103.46	3420.94	3041.35	2652.76	1042.9	3483.59	2761.42	915.64	3517.94	3741.17	2234.85	868.94	1094.51	764.69	2810.77	304.51	2238.54	2164.29	3094.7	716.25	3424.97	1258.49	1352.47	3266.2	1186.24	1461.82	2539.65	1563.14	661.85	663.83	2376.1	2812.05	654.0	1566.62	1538.88	3413.58	1471.18	1363.13	3082.75	3529.44	678.22	3634.43	2020.83	997.08	3896.58	393.51	1918.03	218.28	1335.12	2945.66	2601.92	1329.75	1208.98	3640.53	3196.88	226.68	2843.56	2930.9	634.24	1458.98	3490.4	1122.32	2909.88	470.55	1636.93	256.11	158.75	1401.49	1576.48	459.84	430.76	193.04	1612.19	2227.94	2946.33	2324.63	826.36	3186.79	1606.14	1852.6	1332.25	653.98	2593.0	450.56	3525.65	3591.84	1599.51	1512.93	1746.02	2980.24	904.9	743.68	3441.77	3058.69	2582.41	673.46	1731.89	2139.14	2839.49	2873.95	2593.12	3304.07		3468.84	1351.72	366.07	974.2	3774.63	
1404.3	2586.15	2031.7	1238.63	3736.5	2582.43	692.87	3012.81	286.12	968.0	807.7	1084.11	1975.27	1171.09	1793.33	196.43	3266.23	631.26	832.48	2309.02	2694.99	2984.6	2788.93	809.83	3366.35	496.89	1580.64	3623.86	598.35	2340.55	2342.73	715.59	1246.49	3538.72	2586.99	1206.37	382.46	3602.75	3530.23	1282.43	2120.79	2528.85	3883.94	385.91	1156.5	844.54	2426.25	696.41	721.17	3206.34	202.99	818.19	1372.12	2667.07	2431.01	3741.37	1248.82	3773.33	2061.44	1493.67	488.67	3074.71	276.7	2307.79	2128.69	526.14	2291.07	2469.28	1619.26	3070.22	3548.75	3296.67	2045.55	1306.65	2833.51	3186.67	2092.06	344.49	2034.89	2200.46	1215.99	359.94	3112.33	731.03	1516.41	3508.14	1263.35	3703.58	2329.33	3448.82	3137.87	900.47	948.32	3266.31	3284.0	1052.45	1243.7	3640.4	931.63	1287.87	3722.7	2799.49	581.81	2396.01	789.07	3050.1	1835.82	3266.18	3613.68	2145.65	3106.07	3009.82	3134.9	3280.78	1991.52	1302.75	856.0	2144.59	3716.58	295.26	3134.05	2645.27	3247.48	3381.81	942.5	3317.1	202.94	576.09	3531.2	1956.64	3202.83	642.93	3322.59	2736.69	90.38	1418.02	1145.68	2955.53	3122.6	1676.52	949.05	661.37	1058.11	1274.29	3468.84		2137.99	3692.43	2537.55	1001.68	
1055.14	668.24	1311.71	1005.74	1669.24	444.5	2287.06	913.07	2068.69	1574.64	2368.57	1061.64	354.46	1337.18	569.23	2020.37	1203.51	1506.73	1565.67	620.85	1190.52	860.76	1009.34	1611.16	1304.52	1957.63	624.55	1492.96	1550.84	701.99	280.24	1759.48	1673.06	1461.7	721.44	1520.09	1761.01	1482.24	1400.94	902.11	935.34	654.53	1831.74	2070.01	1734.97	1359.91	361.25	2136.24	1420.96	1164.18	2173.46	2395.69	1074.14	531.99	554.18	1634.2	1512.01	1654.24	1195.35	841.76	1807.05	968.81	2077.06	597.72	43.42	1914.53	339.67	720.98	1320.8	1344.59	1437.71	1190.47	1325.84	1525.07	701.59	1440.84	359.92	2123.28	450.73	213.32	1786.46	2239.21	1000.95	2287.0	839.53	1474.92	2580.71	1565.59	1041.23	1372.35	1276.69	1604.48	1250.33	1386.42	1348.41	2314.62	1905.2	1507.7	1500.61	1644.67	1598.78	1044.94	2139.65	265.41	1559.96	992.03	313.46	1133.22	1487.93	547.73	1381.53	894.24	996.97	1172.94	359.56	876.27	1739.62	1324.29	1622.5	1849.58	1421.15	1213.95	1371.3	1274.04	1328.71	1183.5	2181.28	2240.64	1727.39	229.65	1555.5	1714.42	1274.75	608.33	2104.14	1800.16	1419.42	826.9	1486.81	885.95	1497.97	1587.61	1246.57	2015.66	1351.72	2137.99		1554.53	400.18	2439.72	
2490.53	1293.1	2400.61	2527.07	655.08	1110.04	3793.96	752.93	3613.75	3060.95	3871.6	2613.02	1762.68	2803.42	1985.78	3573.22	680.24	3061.2	3080.85	1581.95	1719.69	731.52	1371.92	3118.2	645.0	3487.08	2141.62	223.29	3103.05	1624.3	1369.87	3269.61	3080.06	549.69	1341.59	2951.06	3314.62	332.0	278.3	2437.21	2005.06	1343.73	774.32	3612.19	3163.35	2898.94	1294.35	3646.7	2975.15	794.18	3725.18	3898.76	2517.54	1029.44	1397.1	439.73	2931.2	316.18	2273.06	2315.37	3345.35	707.43	3625.8	1568.14	1564.23	3447.95	1452.33	1494.74	2624.85	1434.78	411.33	548.39	2405.62	2924.98	864.95	1412.02	1672.38	3663.97	1749.77	1518.92	3196.99	3780.18	663.13	3796.85	2294.52	761.22	4017.0	28.64	1926.84	567.86	1199.01	3102.12	2792.3	1160.06	1037.83	3772.62	3306.33	153.24	3003.68	3041.13	301.4	1402.66	3664.05	1300.22	3083.76	809.67	1859.0	442.76	242.0	1699.16	1439.68	724.19	557.56	525.58	1758.79	2416.82	3225.58	2340.87	515.05	3403.98	1462.57	1802.63	1167.39	493.33	2850.72	405.87	3733.06	3767.51	1372.43	1744.03	1587.29	3239.86	738.63	963.62	3658.38	3150.55	2869.58	759.16	1589.28	2253.98	2997.55	3124.28	2761.92	3409.84	366.07	3692.43	1554.53		1155.84	3915.8	
1412.81	518.05	1492.16	1382.62	1296.94	55.0	2676.9	568.07	2468.0	1936.48	2740.76	1461.73	669.99	1687.73	904.31	2417.45	874.62	1906.32	1941.48	710.78	1132.98	487.92	853.23	1999.48	971.17	2353.22	1010.93	1093.99	1951.02	736.15	302.69	2149.17	1999.73	1111.83	593.04	1855.86	2161.07	1087.37	1002.69	1297.46	1080.85	595.99	1463.56	2460.46	2071.6	1757.38	283.56	2511.27	1819.43	821.38	2569.68	2767.96	1435.33	134.37	546.44	1244.31	1842.34	1271.91	1364.46	1190.23	2204.76	589.49	2471.29	686.77	414.53	2300.23	430.73	677.48	1595.76	1159.16	1047.48	805.77	1503.13	1846.87	321.59	1234.32	577.23	2521.73	708.67	391.83	2115.79	2637.77	616.54	2662.07	1201.54	1123.82	2925.68	1166.3	1112.17	1025.65	1031.07	1971.86	1639.91	1120.09	1055.92	2667.38	2231.6	1115.32	1870.17	1966.41	1202.12	895.39	2521.21	148.31	1940.12	682.97	710.52	742.65	1101.77	732.36	1191.86	531.13	598.63	807.33	641.35	1264.29	2121.63	1474.91	1238.53	2248.36	1232.03	1182.44	1108.23	887.19	1720.97	783.99	2577.55	2623.52	1470.89	606.61	1379.78	2108.57	923.01	244.88	2502.64	2104.13	1787.19	431.98	1323.83	1178.5	1865.81	1984.71	1621.28	2340.11	974.2	2537.55	400.18	1155.84		2800.51	
2096.79	2656.43	1733.4	1439.06	3788.4	2853.72	1690.01	3350.93	1282.34	865.36	195.16	1597.37	2419.16	1114.35	2313.08	871.09	3643.04	1229.25	891.33	2820.43	2529.2	3286.94	2741.13	1678.89	3744.17	1472.9	2063.99	3794.47	1288.98	2342.88	2702.53	1638.11	866.44	3900.46	2628.56	970.77	1154.67	3745.74	3699.89	1819.8	2006.61	2994.36	3908.84	653.76	768.6	1542.35	2789.13	371.65	1234.89	3273.52	798.9	190.07	2068.75	2909.29	2886.05	3850.43	996.1	4070.14	1821.35	1610.35	1401.03	3226.0	750.94	2811.03	2448.53	660.17	2697.85	2481.99	1362.59	2942.48	3675.54	3431.45	1740.03	1015.44	3121.55	3052.45	2245.53	1346.01	2519.0	2412.49	757.02	1350.25	3269.0	273.79	2120.0	3539.71	261.69	3919.86	2173.13	3811.47	3079.23	836.96	1248.01	3202.92	3256.71	171.56	677.86	3902.17	942.18	912.71	3867.98	2736.16	452.64	2652.58	913.48	3430.22	2202.73	3537.12	3897.84	2657.05	2972.02	3326.17	3378.22	3605.02	2164.86	1586.31	1779.75	1841.78	3805.68	1012.08	2989.21	2456.98	3184.01	3513.3	1672.28	3512.73	799.56	426.71	3388.28	2333.59	3011.77	1535.79	3384.41	3036.35	923.01	889.33	1969.36	3157.42	2937.86	1666.52	943.19	1473.47	1199.44	612.46	3774.63	1001.68	2439.72	3915.8	2800.51		
