n: 100
deposito: 51
clusters: 20
factor: 1

xcoord[n]:
3140.0
556.0
3675.0
1182.0
3595.0
962.0
2030.0
3507.0
2642.0
3438.0
3858.0
2937.0
376.0
839.0
706.0
749.0
298.0
694.0
387.0
2801.0
3133.0
1517.0
1538.0
844.0
2639.0
3123.0
2489.0
3834.0
3417.0
2938.0
71.0
3245.0
731.0
2312.0
2426.0
380.0
2310.0
2830.0
3829.0
3684.0
171.0
627.0
1490.0
61.0
422.0
2698.0
2372.0
177.0
3084.0
1213.0
3.0
1782.0
3896.0
1829.0
1286.0
3017.0
2132.0
2000.0
3317.0
1729.0
2408.0
3292.0
193.0
782.0
2503.0
1697.0
3821.0
3370.0
3162.0
3938.0
2741.0
2330.0
3918.0
1794.0
2929.0
3453.0
896.0
399.0
2614.0
2800.0
2630.0
563.0
1090.0
2009.0
3876.0
3084.0
1526.0
1612.0
1423.0
3058.0
3782.0
347.0
3904.0
2191.0
3220.0
468.0
3611.0
3114.0
3515.0
3060.0

ycoord[n]:
1401.0
1056.0
1522.0
1853.0
111.0
1895.0
1186.0
1851.0
1269.0
901.0
1472.0
1568.0
1018.0
1355.0
1925.0
920.0
615.0
552.0
190.0
695.0
1143.0
266.0
224.0
520.0
1239.0
217.0
1520.0
1827.0
1808.0
543.0
1323.0
1828.0
1741.0
1270.0
1851.0
478.0
635.0
775.0
513.0
445.0
514.0
1261.0
1123.0
81.0
542.0
1221.0
127.0
1390.0
748.0
910.0
1817.0
995.0
742.0
812.0
550.0
108.0
1432.0
1110.0
1966.0
1498.0
1747.0
152.0
1210.0
1462.0
352.0
1924.0
147.0
791.0
367.0
516.0
1583.0
741.0
1088.0
1589.0
485.0
1998.0
705.0
850.0
195.0
653.0
20.0
1513.0
1652.0
1163.0
1165.0
774.0
1612.0
328.0
1322.0
1276.0
1865.0
252.0
1444.0
1579.0
1454.0
319.0
1968.0
1629.0
1892.0
155.0

color[n]:
#a847c0
#94844
#e034dc
#e373b7
#9ef6fd
#e373b7
#64d54c
#44570c
#48fb61
#abca75
#e034dc
#a847c0
#94844
#19923e
#19923e
#94844
#bec70b
#94844
#95f307
#abca75
#a847c0
#73bb09
#73bb09
#94844
#48fb61
#3e7239
#48fb61
#e034dc
#44570c
#abca75
#5011b2
#44570c
#19923e
#48fb61
#48fb61
#bec70b
#132975
#abca75
#9ef6fd
#9ef6fd
#bec70b
#19923e
#64d54c
#95f307
#bec70b
#48fb61
#635803
#5011b2
#abca75
#73bb09
#427075
#64d54c
#ca640f
#64d54c
#73bb09
#3e7239
#48fb61
#64d54c
#44570c
#78ee74
#48fb61
#3e7239
#5011b2
#19923e
#635803
#78ee74
#9ef6fd
#abca75
#3e7239
#9ef6fd
#48fb61
#132975
#ca640f
#78ee74
#abca75
#44570c
#94844
#bec70b
#635803
#abca75
#635803
#19923e
#e373b7
#64d54c
#ca640f
#abca75
#78ee74
#73bb09
#78ee74
#a847c0
#e034dc
#95f307
#ca640f
#48fb61
#a847c0
#bec70b
#e034dc
#a847c0
#44570c
#3e7239

Np[1]: 19 44 92  ;
Np[2]: 3 11 28 91 97  ;
Np[3]: 47 65 79 81  ;
Np[4]: 4 6 83  ;
Np[5]: 5 39 40 67 70  ;
Np[6]: 9 25 27 34 35 46 57 61 71 94  ;
Np[7]: 31 48 63  ;
Np[8]: 22 23 50 55 88  ;
Np[9]: 10 20 30 38 49 68 75 80 86  ;
Np[10]: 53 73 85 93  ;
Np[11]: 1 12 21 90 95 98  ;
Np[12]: 60 66 74 87 89  ;
Np[13]: 2 13 16 18 24 77  ;
Np[14]: 26 56 62 69 100  ;
Np[15]: 37 72  ;
Np[16]: 7 43 52 54 58 84  ;
Np[17]: 17 36 41 45 78 96  ;
Np[18]: 14 15 33 42 64 82  ;
Np[19]: 8 29 32 59 76 99  ;
Np[20]: 51  ;


c[n,n]:
	2606.93	548.51	2009.49	1367.89	2233.32	1130.63	580.68	515.2	582.07	721.5	262.86	2790.41	2301.46	2489.77	2438.9	2948.69	2589.15	3007.58	783.17	258.09	1980.49	1987.9	2459.22	526.54	1184.12	661.79	814.32	492.32	881.46	3069.99	439.72	2432.88	838.3	843.98	2910.25	1129.45	698.55	1123.95	1099.94	3098.67	2516.9	1673.26	3350.02	2850.51	477.25	1487.58	2963.02	655.4	1988.57	3164.46	1417.39	1002.9	1437.23	2039.98	1298.84	1008.48	1176.55	592.08	1414.33	809.65	1258.22	2953.18	2358.79	1227.26	1534.85	1426.98	651.92	1034.23	1191.65	438.55	1044.84	838.6	1359.07	939.99	674.08	2349.46	2795.83	1315.72	821.65	1472.16	2579.43	2065.31	1155.77	772.91	629.5	1627.73	1867.11	1718.82	149.5	792.12	3020.11	765.21	965.55	95.96	2882.76	737.11	229.48	617.82	1248.57	
2606.93		3153.62	1013.45	3182.54	932.07	1479.72	3056.21	2096.85	2886.17	3328.1	2435.43	183.97	411.69	881.85	236.1	510.93	522.55	882.34	2273.84	2578.47	1244.03	1287.07	608.47	2091.02	2700.63	1987.91	3367.45	2958.18	2436.62	553.64	2797.62	707.0	1768.99	2031.98	604.2	1803.82	2291.3	3317.74	3187.12	664.82	216.95	936.4	1093.46	531.18	2148.35	2039.83	505.17	2546.69	673.03	940.71	1227.52	3354.73	1296.17	888.22	2637.28	1620.23	1445.01	2907.1	1253.51	1976.71	2881.48	394.32	464.66	2070.37	1433.63	3389.17	2826.45	2695.54	3424.84	2247.66	1801.75	3362.15	1347.86	2440.73	3046.3	488.67	259.01	2230.85	2279.9	2318.36	457.05	800.23	1456.93	3321.79	2543.68	1118.05	1282.62	906.89	2511.65	3325.89	830.72	3370.41	1716.61	2693.57	742.24	3188.22	2621.39	3074.83	2661.17	
548.51	3153.62		2514.88	1413.27	2738.52	1678.96	369.41	1063.53	664.69	189.71	739.43	3337.28	2840.91	2996.23	2987.29	3496.68	3134.85	3547.56	1203.25	661.37	2496.9	2500.31	3003.09	1073.96	1416.94	1186.0	343.96	385.18	1225.4	3609.49	527.77	2952.13	1386.1	1291.6	3456.44	1627.88	1127.84	1020.68	1077.04	3646.1	3059.15	2221.13	3890.69	3397.41	1022.32	1908.88	3500.49	973.84	2536.92	3683.83	1964.99	810.7	1977.83	2579.17	1559.6	1545.62	1724.93	570.35	1946.15	1286.82	1422.53	3495.95	2893.62	1656.04	2018.44	1382.73	792.08	1263.8	1039.81	935.99	1555.31	497.4	1882.19	1277.45	525.22	2896.61	3344.21	1699.01	1233.2	1829.76	3112.01	2588.27	1704.24	409.7	953.3	2150.88	2383.61	2260.86	664.23	359.3	3562.09	241.92	1485.09	460.05	3425.21	450.57	571.11	403.11	1498.97	
2009.49	1013.45	2514.88		2976.09	223.97	1078.89	2325.0	1572.47	2448.64	2702.99	1777.99	1160.54	604.69	481.41	1028.58	1521.22	1389.51	1843.26	1990.51	2076.17	1621.97	1667.45	1375.18	1581.09	2538.5	1348.75	2652.13	2235.45	2190.81	1230.94	2063.15	464.7	1271.53	1244.0	1591.8	1660.09	1969.26	2966.85	2870.97	1677.81	811.47	792.32	2096.81	1515.36	1642.46	2096.47	1106.52	2199.69	943.51	1179.55	1046.98	2932.6	1225.68	1307.14	2532.24	1039.11	1105.07	2137.99	652.1	1230.57	2710.26	1179.65	559.36	1999.51	519.87	3142.41	2432.12	2475.6	3063.19	1582.21	1598.26	2840.94	666.51	2218.88	2275.62	1183.09	1272.44	2190.8	2014.43	2335.94	706.23	221.05	1077.05	2780.46	2186.74	420.02	1584.46	583.13	1962.73	2600.03	1805.66	2752.56	1045.54	2076.69	1692.03	2431.72	1944.94	2333.33	2531.82	
1367.89	3182.54	1413.27	2976.09		3180.46	1898.64	1742.22	1499.72	805.45	1386.18	1598.69	3344.34	3023.75	3411.29	2958.75	3335.3	2934.33	3208.97	985.64	1130.69	2083.77	2060.1	2781.24	1478.62	483.76	1791.23	1732.56	1706.31	786.3	3726.6	1752.31	3295.36	1728.98	2096.23	3235.88	1387.73	1012.98	465.15	345.65	3447.63	3183.01	2335.63	3534.13	3202.14	1427.13	1223.1	3649.46	816.63	2512.43	3976.54	2017.03	699.12	1900.04	2350.36	578.01	1971.14	1882.03	1875.72	2325.02	2021.25	305.76	3575.11	3120.6	1118.28	2624.76	228.85	716.26	503.02	530.73	1701.79	1413.2	1029.01	2329.83	763.83	1892.34	2763.59	3280.33	984.59	962.18	969.28	3340.45	2941.04	1903.18	1090.81	837.07	2556.12	1994.84	2486.79	1282.81	1763.94	3251.06	1368.35	2031.31	1394.37	3133.91	1857.07	1592.38	1782.8	536.81	
2233.32	932.07	2738.52	223.97	3180.46		1281.91	2545.38	1792.84	2668.07	2926.73	2001.89	1054.76	553.83	257.75	997.99	1441.98	1369.48	1799.35	2195.89	2297.55	1720.95	1767.49	1380.05	1800.74	2735.98	1572.37	2872.8	2456.54	2394.26	1058.8	2283.98	277.63	1487.66	1464.66	1531.87	1845.18	2178.03	3182.71	3084.12	1591.49	717.06	935.29	2025.44	1456.78	1862.25	2261.4	933.41	2412.16	1016.48	962.17	1217.54	3152.42	1387.29	1383.47	2723.31	1258.28	1301.41	2356.07	863.65	1453.55	2909.8	1029.85	468.92	2180.72	735.57	3351.03	2649.01	2678.58	3279.97	1806.15	1789.73	3064.18	886.49	2420.16	2493.13	1191.83	1187.01	2370.46	2218.29	2509.55	552.38	274.65	1277.51	3004.05	2399.9	631.02	1696.46	735.43	2185.49	2820.16	1754.33	2976.37	1268.97	2300.66	1651.61	2650.01	2168.38	2553.0	2725.66	
1130.63	1479.72	1678.96	1078.89	1898.64	1281.91		1619.8	617.6	1436.55	1850.24	984.16	1662.51	1202.93	1516.28	1308.33	1823.7	1478.8	1921.32	914.07	1103.84	1053.36	1080.51	1360.2	611.3	1460.69	567.66	1914.5	1520.08	1112.62	1963.78	1374.19	1412.6	294.24	773.98	1795.48	618.06	899.4	1920.76	1812.4	1976.73	1405.0	543.66	2257.87	1732.17	668.92	1112.85	1864.2	1141.39	862.36	2122.94	313.03	1918.1	424.59	978.79	1461.59	266.31	81.71	1504.91	433.53	676.47	1631.5	1837.16	1278.15	958.79	809.65	2070.56	1397.01	1397.21	2022.22	814.33	536.68	1890.54	467.02	1140.0	1638.38	1231.79	1665.25	1150.28	936.48	1311.32	1503.0	1049.17	31.14	1846.12	1131.66	659.92	954.4	622.05	1031.93	1878.97	1924.8	1891.68	424.7	1219.8	1786.49	1763.83	1171.03	1644.28	1457.35	
580.68	3056.21	369.41	2325.0	1742.22	2545.38	1619.8		1042.57	952.5	516.57	636.39	3239.92	2713.71	2801.98	2910.9	3438.8	3098.45	3534.59	1354.54	800.71	2544.08	2554.23	2977.1	1062.06	1678.51	1070.46	327.88	99.74	1426.4	3476.33	263.01	2778.18	1328.75	1081.0	3415.15	1706.3	1271.26	1376.2	1417.1	3593.95	2939.81	2144.36	3873.99	3351.22	1025.37	2064.07	3361.76	1181.33	2479.5	3504.16	1925.71	1175.25	1973.63	2573.99	1810.57	1437.42	1679.32	222.09	1812.7	1103.91	1712.55	3375.42	2752.63	1804.17	1811.47	1732.69	1068.82	1523.58	1402.85	811.53	1617.85	866.65	1732.92	1483.25	156.6	2851.43	3265.22	1881.43	1391.06	2030.19	2963.34	2425.18	1648.44	778.95	1157.09	1995.37	2431.16	2150.09	729.54	275.36	3541.53	568.56	1343.82	489.88	3403.31	156.54	451.37	41.77	1753.92	
515.2	2096.85	1063.53	1572.47	1499.72	1792.84	617.6	1042.57		876.95	1232.83	420.03	2279.86	1805.05	2044.12	1924.9	2433.53	2075.76	2499.85	595.61	506.91	1507.19	1520.15	1947.77	30.15	1156.75	293.96	1316.14	944.01	784.02	2571.57	822.25	1968.43	330.0	620.79	2396.31	715.67	528.56	1407.3	1328.44	2583.77	2015.02	1161.21	2841.29	2336.01	73.76	1173.48	2467.97	683.23	1473.4	2695.3	902.59	1360.24	932.64	1534.83	1220.06	535.41	661.4	970.28	941.28	532.2	1292.36	2449.71	1869.99	927.48	1149.8	1627.55	870.9	1041.16	1498.87	329.24	613.29	1288.77	906.37	834.88	1090.49	1834.83	2281.8	1074.36	635.94	1249.06	2093.27	1598.56	641.81	1238.37	663.62	1167.52	1395.13	1220.15	416.06	1286.4	2510.24	1274.08	547.27	606.88	2372.5	1194.81	593.62	1072.5	1189.84	
582.07	2886.17	664.69	2448.64	805.45	2668.07	1436.55	952.5	876.95		708.83	834.2	3064.23	2638.35	2917.6	2689.07	3153.0	2766.11	3132.75	669.48	389.34	2023.23	2017.01	2621.83	867.55	753.05	1133.03	1007.12	907.24	614.95	3393.34	946.88	2834.33	1184.92	1388.04	3087.12	1158.94	620.92	550.84	518.12	3289.84	2833.96	1960.61	3475.13	3037.29	806.23	1317.36	3297.46	385.65	2225.02	3555.04	1658.67	484.81	1611.46	2180.44	897.83	1409.82	1453.11	1071.85	1810.27	1332.9	763.1	3259.68	2714.6	1084.26	2019.31	845.7	129.32	601.11	631.05	975.16	1119.49	515.14	1782.16	657.37	1097.1	2549.55	3039.43	1085.09	684.51	1195.42	2939.42	2465.18	1452.82	511.41	376.09	2039.92	1913.79	2058.51	533.88	1023.54	3158.4	715.55	1419.4	594.42	3026.49	1080.93	796.84	993.99	836.3	
721.5	3328.1	189.71	2702.99	1386.18	2926.73	1850.24	516.57	1232.83	708.83		925.99	3511.47	3021.27	3184.39	3157.62	3661.7	3295.04	3700.18	1311.86	796.16	2633.39	2634.37	3160.78	1241.07	1454.39	1369.84	355.81	554.42	1307.46	3789.93	708.88	3138.55	1559.14	1481.31	3617.25	1759.79	1242.01	959.44	1041.64	3809.43	3237.88	2393.58	4043.77	3559.63	1186.84	2004.3	3681.91	1059.84	2704.05	3870.41	2130.1	730.99	2133.65	2732.26	1602.43	1726.46	1892.94	732.61	2129.16	1475.85	1436.23	3674.35	3076.02	1757.96	2207.76	1325.52	837.8	1305.93	959.34	1122.5	1693.86	388.66	2067.31	1355.44	663.85	3059.69	3514.48	1782.77	1337.96	1901.65	3295.26	2773.85	1874.64	307.53	1042.25	2336.2	2520.57	2439.62	823.66	400.28	3716.92	53.85	1670.43	638.25	3580.71	554.1	760.38	542.26	1539.9	
262.86	2435.43	739.43	1777.99	1598.69	2001.89	984.16	636.39	420.03	834.2	925.99		2619.39	2108.78	2259.38	2281.94	2805.8	2462.38	2898.51	883.53	468.02	1926.55	1939.98	2340.72	443.9	1363.74	450.56	933.64	536.66	1025.0	2876.45	403.07	2212.77	692.41	584.13	2779.63	1124.11	800.19	1381.55	1348.75	2960.01	2330.31	1513.88	3237.68	2716.23	421.34	1547.81	2765.73	833.07	1845.3	2944.55	1289.32	1265.68	1341.34	1939.62	1462.19	816.41	1042.94	550.28	1210.03	558.46	1459.82	2767.25	2157.61	1291.13	1290.09	1673.53	889.5	1221.89	1452.14	196.57	1025.85	1092.14	1143.19	1083.03	671.68	2215.95	2637.61	1410.48	925.2	1578.15	2374.64	1848.91	1012.53	1021.83	807.49	1411.69	1814.72	1533.86	316.08	895.68	2905.16	974.92	746.08	305.1	2766.94	783.76	187.22	662.62	1418.34	
2790.41	183.97	3337.28	1160.54	3344.34	1054.76	1662.51	3239.92	2279.86	3064.23	3511.47	2619.39		572.66	965.17	385.66	410.48	564.16	828.07	2446.42	2759.83	1366.52	1407.37	683.39	2273.77	2861.4	2171.81	3551.37	3141.94	2605.66	431.34	2981.15	805.45	1952.33	2212.78	540.01	1971.56	2466.0	3489.73	3357.26	544.1	349.36	1118.94	988.53	478.22	2330.86	2185.84	421.88	2721.43	843.94	881.78	1406.19	3530.8	1467.53	1023.29	2793.38	1804.14	1626.6	3090.01	1435.62	2158.81	3041.88	265.24	601.64	2228.83	1601.84	3553.4	3002.59	2861.05	3597.2	2431.55	1973.54	3542.69	1528.65	2608.04	3229.29	606.93	169.57	2384.53	2451.33	2465.06	529.14	954.86	1639.42	3503.09	2718.97	1294.35	1415.56	1090.24	2694.38	3509.74	766.55	3553.63	1899.72	2877.23	705.03	3371.61	2805.35	3258.4	2819.33	
2301.46	411.69	2840.91	604.69	3023.75	553.83	1202.93	2713.71	1805.05	2638.35	3021.27	2108.78	572.66		585.31	444.21	916.67	815.99	1249.61	2070.03	2303.78	1282.81	1329.57	835.01	1803.73	2551.8	1658.23	3031.96	2617.5	2250.59	768.67	2452.05	400.82	1475.45	1662.7	989.85	1637.75	2073.76	3106.29	2986.99	1074.01	231.91	691.1	1492.77	913.71	1863.82	1964.2	662.92	2325.61	581.29	955.16	1009.38	3117.85	1129.14	920.78	2509.72	1295.29	1186.57	2552.22	901.41	1617.23	2732.11	662.07	121.24	1942.91	1029.53	3217.39	2593.08	2524.38	3210.56	1915.62	1612.48	3090.55	983.25	2263.85	2691.92	652.49	669.79	2120.43	2082.86	2233.81	318.03	388.86	1185.65	3042.94	2318.96	733.5	1285.4	584.93	2220.41	2986.86	1207.76	3066.29	1370.43	2383.06	1100.43	2838.97	2291.44	2729.35	2524.45	
2489.77	881.85	2996.23	481.41	3411.29	257.75	1516.28	2801.98	2044.12	2917.6	3184.39	2259.38	965.17	585.31		1005.92	1372.07	1373.05	1764.08	2429.39	2549.87	1846.62	1893.57	1411.76	2051.12	2959.59	1828.42	3129.53	2713.52	2625.21	875.0	2540.85	185.69	1734.43	1721.59	1483.27	2058.38	2415.34	3427.37	3325.49	1509.02	668.68	1121.54	1953.55	1411.86	2112.74	2451.2	752.37	2653.34	1134.58	711.25	1422.21	3402.29	1581.11	1492.32	2939.76	1508.82	1529.27	2611.32	1108.54	1711.28	3135.43	880.0	469.2	2388.21	991.0	3586.71	2895.32	2908.49	3525.78	2063.54	2009.78	3319.26	1138.7	2648.65	2747.97	1234.71	1117.98	2575.53	2450.07	2707.55	436.11	471.15	1509.45	3259.83	2641.91	877.71	1836.1	936.86	2439.9	3076.59	1711.08	3233.97	1524.78	2557.74	1623.54	2905.32	2426.12	2809.19	2945.2	
2438.9	236.1	2987.29	1028.58	2958.75	997.99	1308.33	2910.9	1924.9	2689.07	3157.62	2281.94	385.66	444.21	1005.92		544.45	372.09	814.83	2064.3	2394.41	1008.73	1052.11	411.13	1916.73	2475.9	1840.54	3215.57	2811.9	2221.23	788.73	2656.03	821.2	1601.71	1918.1	575.78	1586.8	2086.05	3106.77	2973.19	706.34	362.17	768.3	1085.02	499.81	1972.11	1806.37	740.33	2341.33	464.11	1166.67	1035.72	3152.03	1085.39	652.13	2408.98	1474.73	1265.35	2772.86	1137.75	1853.7	2656.44	627.09	543.0	1843.68	1380.84	3167.76	2624.17	2475.56	3214.49	2099.44	1591.1	3173.45	1240.8	2222.98	2910.96	260.45	356.93	2000.96	2068.31	2085.22	621.49	807.53	1283.22	3136.58	2339.56	1040.48	1046.53	784.78	2336.28	3176.81	779.63	3198.22	1585.45	2528.04	663.45	3047.84	2468.99	2931.82	2434.33	
2948.69	510.93	3496.68	1521.22	3335.3	1441.98	1823.7	3438.8	2433.53	3153.0	3661.7	2805.8	410.48	916.67	1372.07	544.45		400.98	434.22	2504.28	2883.75	1267.98	1300.18	554.2	2422.74	2852.9	2370.55	3737.95	3339.37	2640.98	743.5	3186.88	1206.39	2117.83	2460.91	159.67	2012.1	2537.05	3532.47	3390.26	162.27	724.95	1295.73	584.23	143.89	2475.33	2130.64	784.39	2789.17	961.38	1237.67	1531.88	3600.24	1543.62	990.14	2765.87	2007.75	1772.52	3307.5	1681.5	2394.48	3029.59	604.19	975.53	2220.63	1915.9	3553.95	3077.04	2874.72	3641.35	2627.79	2035.9	3650.77	1785.13	2634.21	3444.81	604.73	255.79	2353.77	2502.29	2406.71	936.28	1304.85	1796.61	3620.03	2790.53	1581.77	1344.98	1328.71	2838.05	3701.45	366.29	3700.06	2124.32	3040.07	341.34	3578.63	2993.0	3461.19	2800.04	
2589.15	522.55	3134.85	1389.51	2934.33	1369.48	1478.8	3098.45	2075.76	2766.11	3295.04	2462.38	564.16	815.99	1373.05	372.09	400.98		474.65	2111.85	2509.58	871.28	905.49	153.38	2062.76	2451.99	2039.37	3388.99	2998.71	2244.02	991.25	2852.33	1189.58	1770.15	2165.0	322.6	1618.13	2147.61	3135.24	2991.91	524.38	712.16	979.62	789.01	272.18	2112.72	1730.98	984.65	2398.02	630.5	1441.42	1174.73	3207.63	1164.4	592.0	2365.05	1685.9	1420.21	2979.85	1402.19	2089.45	2628.61	827.02	914.25	1820.02	1699.53	3153.12	2686.65	2474.92	3244.2	2291.98	1646.88	3268.25	1511.74	2236.0	3114.96	253.4	419.32	1952.91	2108.42	2007.76	969.89	1169.11	1450.02	3240.51	2400.29	1347.53	944.93	1060.35	2472.38	3355.55	458.7	3331.63	1815.42	2682.22	324.6	3242.52	2648.84	3123.08	2399.08	
3007.58	882.34	3547.56	1843.26	3208.97	1799.35	1921.32	3534.59	2499.85	3132.75	3700.18	2898.51	828.07	1249.61	1764.08	814.83	434.22	474.65		2466.26	2906.67	1132.55	1151.5	563.69	2484.33	2736.13	2487.43	3815.96	3434.94	2575.31	1176.24	3294.12	1588.69	2207.27	2629.91	288.09	1973.82	2512.07	3457.12	3306.85	389.4	1097.56	1444.68	343.74	353.74	2530.55	1986.0	1218.24	2754.12	1095.75	1671.7	1610.61	3552.15	1570.43	968.4	2631.28	2141.87	1856.92	3426.23	1873.99	2551.21	2905.25	1038.29	1331.92	2122.19	2173.21	3434.27	3042.94	2780.64	3565.93	2735.28	2019.62	3643.4	1984.15	2559.06	3559.38	724.09	660.11	2227.01	2457.02	2249.43	1334.66	1622.24	1891.46	3622.67	2759.5	1821.92	1232.75	1534.51	2883.34	3785.72	73.78	3733.87	2276.78	3102.19	152.32	3681.77	3083.38	3561.07	2673.23	
783.17	2273.84	1203.25	1990.51	985.64	2195.89	914.07	1354.54	595.61	669.48	1311.86	883.53	2446.42	2070.03	2429.39	2064.3	2504.28	2111.85	2466.26		557.61	1353.77	1347.97	1964.81	567.61	576.34	882.03	1532.49	1272.09	204.63	2801.3	1216.89	2319.27	754.82	1215.3	2430.71	494.65	85.09	1043.99	917.71	2636.22	2246.47	1379.1	2807.95	2383.91	535.99	711.8	2714.48	287.92	1602.49	3014.58	1062.24	1096.01	979.02	1521.92	625.48	995.35	902.12	1371.75	1339.4	1123.01	732.07	2658.36	2159.78	454.37	1652.05	1157.89	577.04	487.76	1151.0	890.02	473.24	1184.12	1346.58	245.93	1457.02	1905.03	2407.0	533.82	42.01	696.32	2382.81	1960.45	919.94	1173.25	293.82	1570.51	1244.35	1513.94	635.3	1526.85	2493.66	1333.27	1074.04	866.97	2363.1	1508.85	985.05	1393.77	598.9	
258.09	2578.47	661.37	2076.17	1130.69	2297.55	1103.84	800.71	506.91	389.34	796.16	468.02	2759.83	2303.78	2549.87	2394.41	2883.75	2509.58	2906.67	557.61		1838.64	1840.81	2372.27	503.24	926.05	746.23	979.42	723.11	630.89	3067.29	694.1	2475.32	830.76	1000.56	2832.18	967.16	476.69	938.78	889.27	3028.05	2508.78	1643.12	3250.39	2776.82	441.94	1269.4	2966.3	398.03	1934.09	3201.75	1359.08	861.96	1345.35	1939.86	1041.48	1041.88	1133.48	843.32	1448.19	943.63	1003.67	2940.76	2372.54	1011.23	1634.64	1210.52	424.35	776.54	1020.37	589.29	898.01	786.92	1411.32	688.9	912.92	2279.48	2749.66	1080.77	592.44	1230.5	2596.5	2105.45	1124.18	743.33	372.24	1674.04	1725.59	1719.34	152.69	970.82	2925.01	827.67	1038.01	322.94	2789.48	953.47	486.37	840.79	990.69	
1980.49	1244.03	2496.9	1621.97	2083.77	1720.95	1053.36	2544.08	1507.19	2023.23	2633.39	1926.55	1366.52	1282.81	1846.62	1008.73	1267.98	871.28	1132.55	1353.77	1838.64		46.96	719.34	1485.13	1606.75	1586.6	2793.78	2446.99	1447.75	1791.14	2329.34	1671.35	1280.64	1827.16	1156.6	874.65	1408.21	2325.16	2174.38	1368.66	1334.96	857.43	1467.71	1129.25	1518.81	866.23	1748.99	1639.46	712.15	2167.44	775.67	2426.15	628.86	366.08	1508.3	1318.25	972.43	2475.88	1250.11	1728.36	1778.66	1626.07	1403.8	989.74	1667.74	2307.07	1925.94	1648.1	2433.87	1797.96	941.59	2537.81	1351.69	1428.88	2597.68	760.5	1261.34	1099.3	1340.1	1139.86	1570.07	1450.28	1023.07	2524.5	1647.29	1346.03	113.44	1060.18	1842.49	2772.55	1170.08	2661.85	1475.89	2076.43	1050.34	2698.45	2099.57	2576.02	1546.99	
1987.9	1287.07	2500.31	1667.45	2060.1	1767.49	1080.51	2554.23	1520.15	2017.01	2634.37	1939.98	1407.37	1329.57	1893.57	1052.11	1300.18	905.49	1151.5	1347.97	1840.81	46.96		754.49	1497.47	1585.02	1607.49	2800.22	2457.58	1435.88	1833.0	2342.36	1718.3	1301.23	1853.56	1185.53	874.59	1404.59	2309.16	2157.35	1397.42	1380.32	900.28	1483.91	1160.42	1529.58	839.62	1792.17	1632.39	759.09	2212.21	808.69	2414.23	656.07	412.04	1483.54	1346.14	999.22	2489.86	1288.24	1753.98	1755.48	1667.7	1450.58	973.45	1707.42	2284.3	1917.74	1630.28	2417.7	1814.96	945.81	2531.97	1388.8	1415.27	2610.42	802.2	1299.69	1076.39	1332.92	1110.89	1616.21	1496.63	1050.51	2520.26	1640.92	1388.05	127.64	1104.01	1848.54	2780.0	1191.33	2662.02	1504.14	2083.75	1074.21	2709.03	2111.35	2586.65	1523.56	
2459.22	608.47	3003.09	1375.18	2781.24	1380.05	1360.2	2977.1	1947.77	2621.83	3160.78	2340.72	683.39	835.01	1411.76	411.13	554.2	153.38	563.69	1964.81	2372.27	719.34	754.49		1933.65	2299.05	1925.1	3263.18	2877.37	2094.13	1114.6	2734.17	1226.22	1648.49	2067.43	465.9	1470.5	2002.3	2985.01	2840.99	673.03	772.12	883.7	897.67	422.57	1982.1	1577.73	1096.26	2251.57	536.9	1545.8	1051.41	3060.06	1027.37	443.02	2211.71	1578.19	1297.86	2864.72	1318.98	1987.87	2475.51	948.63	944.04	1667.48	1642.81	3000.28	2540.5	2323.04	3094.0	2174.53	1502.34	3126.04	1430.13	2085.29	2998.56	192.17	554.01	1799.59	1960.52	1854.67	1031.99	1158.42	1330.67	3099.85	2254.35	1287.47	791.64	989.16	2339.52	3231.23	564.65	3196.46	1713.44	2552.98	426.35	3122.98	2526.42	3002.77	2245.86	
526.54	2091.02	1073.96	1581.09	1478.62	1800.74	611.3	1062.06	30.15	867.55	1241.07	443.9	2273.77	1803.73	2051.12	1916.73	2422.74	2062.76	2484.33	567.61	503.24	1485.13	1497.47	1933.65		1130.81	318.53	1331.83	963.87	757.51	2569.37	845.08	1972.93	328.47	648.01	2383.74	687.79	501.77	1393.98	1312.43	2572.28	2012.12	1154.84	2826.14	2323.98	61.68	1143.61	2466.63	662.65	1463.46	2698.63	891.06	1351.69	915.66	1518.33	1192.5	542.49	651.89	994.09	946.14	558.05	1268.06	2446.17	1870.34	897.37	1164.73	1609.22	857.36	1016.82	1486.65	358.8	586.08	1287.88	914.62	807.85	1112.96	1822.97	2273.53	1044.3	607.71	1219.03	2094.0	1603.11	634.57	1239.21	643.62	1173.84	1372.83	1218.83	420.63	1303.2	2495.48	1281.5	562.41	619.5	2357.89	1215.0	614.59	1092.6	1162.88	
1184.12	2700.63	1416.94	2538.5	483.76	2735.98	1460.69	1678.51	1156.75	753.05	1454.39	1363.74	2861.4	2551.8	2959.59	2475.9	2852.9	2451.99	2736.13	576.34	926.05	1606.75	1585.02	2299.05	1130.81		1449.06	1760.01	1617.94	374.83	3246.22	1615.61	2836.24	1329.11	1776.45	2755.39	914.16	630.25	765.54	605.56	2966.9	2705.54	1867.49	3065.02	2720.48	1090.25	756.37	3170.94	532.43	2031.83	3506.34	1550.34	934.43	1424.24	1866.94	152.04	1567.9	1434.77	1759.73	1893.2	1688.82	181.07	3093.7	2651.47	634.53	2224.26	701.5	624.89	154.99	868.12	1418.41	950.49	1179.27	1910.14	330.85	1811.31	2279.84	2796.58	509.48	542.61	530.9	2869.36	2488.44	1461.48	1210.67	558.36	2120.48	1515.07	2027.57	1060.99	1774.88	2776.22	1454.47	1650.35	1240.8	2656.96	1817.73	1412.03	1720.26	88.39	
661.79	1987.91	1186.0	1348.75	1791.23	1572.37	567.66	1070.46	293.96	1133.03	1369.84	450.56	2171.81	1658.23	1828.42	1840.54	2370.55	2039.37	2487.43	882.03	746.23	1586.6	1607.49	1925.1	318.53	1449.06		1379.59	971.66	1075.23	2426.01	816.33	1771.84	306.32	336.94	2352.37	902.92	819.33	1676.2	1607.37	2526.89	1879.93	1074.99	2822.39	2286.69	364.8	1397.9	2315.65	974.68	1414.31	2503.68	880.61	1607.77	967.92	1545.35	1507.49	367.69	638.14	940.48	760.32	241.02	1586.26	2316.83	1707.99	1168.08	889.09	1912.94	1143.5	1335.04	1762.84	259.76	795.06	1492.87	698.42	1124.64	1076.0	1789.38	2194.77	1330.88	921.09	1506.61	1926.01	1405.21	598.2	1431.71	954.22	967.38	1479.86	1084.23	619.11	1338.24	2489.17	1417.04	303.78	733.97	2350.92	1208.13	634.43	1091.36	1479.62	
814.32	3367.45	343.96	2652.13	1732.56	2872.8	1914.5	327.88	1316.14	1007.12	355.81	933.64	3551.37	3031.96	3129.53	3215.57	3737.95	3388.99	3815.96	1532.49	979.42	2793.78	2800.22	3263.18	1331.83	1760.01	1379.59		417.43	1565.72	3796.6	589.0	3104.19	1620.72	1408.2	3708.09	1934.8	1454.21	1314.01	1390.12	3891.21	3256.56	2447.44	4157.41	3645.95	1287.53	2242.2	3683.02	1314.06	2776.78	3831.01	2214.26	1086.77	2247.28	2850.09	1903.27	1747.23	1969.17	535.36	2130.56	1428.24	1760.51	3692.91	3073.75	1986.75	2139.2	1680.05	1135.16	1607.23	1315.12	1119.9	1855.1	743.76	2053.84	1618.64	417.61	3144.95	3571.24	2037.6	1564.43	2171.37	3286.04	2749.57	1942.04	663.33	1292.79	2317.99	2680.35	2463.32	951.72	64.4	3826.2	389.34	1661.61	718.42	3688.36	263.84	746.73	325.55	1842.46	
492.32	2958.18	385.18	2235.45	1706.31	2456.54	1520.08	99.74	944.01	907.24	554.42	536.66	3141.94	2617.5	2713.52	2811.9	3339.37	2998.71	3434.94	1272.09	723.11	2446.99	2457.58	2877.37	963.87	1617.94	971.66	417.43		1352.65	3380.97	173.16	2686.84	1229.01	991.93	3315.46	1612.88	1188.13	1358.96	1388.91	3494.42	2843.12	2045.13	3774.29	3251.58	928.19	1979.34	3266.85	1111.08	2379.92	3414.01	1825.98	1168.67	1874.5	2474.62	1746.42	1338.88	1579.59	186.99	1716.23	1010.84	1660.71	3278.99	2657.62	1719.11	1723.91	1709.43	1018.09	1463.39	1393.09	712.46	1523.17	877.16	1637.71	1410.13	193.38	2751.74	3166.4	1801.83	1309.47	1953.54	2869.21	2332.22	1548.71	790.02	1086.3	1901.13	2334.19	2052.37	641.8	369.42	3441.81	608.0	1247.2	405.12	3303.59	251.47	351.92	129.07	1691.11	
881.46	2436.62	1225.4	2190.81	786.3	2394.26	1112.62	1426.4	784.02	614.95	1307.46	1025.0	2605.66	2250.59	2625.21	2221.23	2640.98	2244.02	2575.31	204.63	630.89	1447.75	1435.88	2094.13	757.51	374.83	1075.23	1565.72	1352.65		2971.21	1321.16	2511.19	959.38	1404.64	2558.83	634.7	255.91	891.5	752.41	2767.15	2419.97	1559.84	2913.86	2516.0	719.22	702.43	2888.0	251.68	1763.61	3199.58	1241.23	978.45	1141.16	1652.01	442.12	1199.98	1096.05	1472.61	1540.68	1315.49	527.44	2824.87	2343.69	475.09	1856.67	967.73	498.12	284.87	1000.36	1058.49	639.43	1121.35	1550.11	58.69	1543.45	2048.42	2557.49	475.48	176.48	606.95	2565.45	2155.22	1116.89	1125.49	273.27	1771.02	1343.32	1703.55	742.76	1568.45	2607.29	1320.97	1277.23	953.65	2480.14	1575.93	1100.17	1467.22	406.73	
3069.99	553.64	3609.49	1230.94	3726.6	1058.8	1963.78	3476.33	2571.57	3393.34	3789.93	2876.45	431.34	768.67	875.0	788.73	743.5	991.25	1176.24	2801.3	3067.29	1791.14	1833.0	1114.6	2569.37	3246.22	2426.01	3796.6	3380.97	2971.21		3213.92	781.23	2241.63	2413.46	899.73	2342.32	2812.9	3844.3	3718.15	815.16	559.45	1433.03	1242.04	856.25	2628.98	2593.26	125.4	3067.38	1214.39	498.66	1742.16	3868.87	1830.76	1440.05	3186.71	2063.88	1940.72	3309.07	1667.21	2375.15	3427.26	166.29	724.46	2618.68	1733.52	3930.07	3341.62	3235.46	3950.31	2682.63	2332.77	3854.17	1743.41	2978.32	3448.7	1030.8	575.6	2781.95	2810.04	2871.64	527.41	1070.8	1944.59	3808.28	3062.61	1483.42	1834.31	1352.0	2987.37	3750.37	1105.99	3834.91	2135.4	3151.72	1079.64	3598.28	3058.35	3490.69	3209.1	
439.72	2797.62	527.77	2063.15	1752.31	2283.98	1374.19	263.01	822.25	946.88	708.88	403.07	2981.15	2452.05	2540.85	2656.03	3186.88	2852.33	3294.12	1216.89	694.1	2329.34	2342.36	2734.17	845.08	1615.61	816.33	589.0	173.16	1321.16	3213.92		2515.5	1087.13	819.32	3167.13	1515.74	1131.83	1438.85	1451.0	3343.06	2678.7	1891.31	3631.79	3102.12	817.1	1911.94	3099.11	1091.93	2229.74	3242.02	1683.53	1266.17	1742.79	2339.01	1735.05	1181.35	1437.2	155.65	1551.5	840.91	1676.66	3113.94	2490.05	1652.01	1550.97	1776.95	1044.51	1463.36	1483.78	560.39	1420.84	1000.26	1470.55	1379.68	268.63	2603.64	3009.35	1750.67	1256.44	1909.74	2700.43	2162.18	1403.54	915.28	1066.23	1732.52	2217.36	1890.96	582.81	538.27	3298.81	762.72	1083.01	374.83	3160.51	391.86	238.25	277.48	1683.2	
2432.88	707.0	2952.13	464.7	3295.36	277.63	1412.6	2778.18	1968.43	2834.33	3138.55	2212.77	805.45	400.82	185.69	821.2	1206.39	1189.58	1588.69	2319.27	2475.32	1671.35	1718.3	1226.22	1972.93	2836.24	1771.84	3104.19	2686.84	2511.19	781.23	2515.5		1649.67	1698.57	1310.87	1927.82	2310.62	3332.5	3224.88	1348.75	491.14	978.78	1790.11	1238.18	2034.57	2301.71	655.83	2553.95	960.67	731.96	1288.84	3318.92	1438.28	1313.97	2809.36	1434.67	1417.22	2595.77	1027.16	1677.01	3013.91	755.91	283.62	2251.51	983.18	3476.91	2804.79	2792.42	3433.0	2016.2	1885.95	3253.21	1073.81	2531.55	2734.11	1049.06	950.84	2436.35	2337.63	2562.82	283.21	369.87	1402.63	3197.31	2543.95	805.4	1665.15	808.97	2373.01	3053.52	1537.72	3186.87	1468.96	2505.49	1446.12	2888.93	2385.63	2788.09	2817.74	
838.3	1768.99	1386.1	1271.53	1728.98	1487.66	294.24	1328.75	330.0	1184.92	1559.14	692.41	1952.33	1475.45	1734.43	1601.71	2117.83	1770.15	2207.27	754.82	830.76	1280.64	1301.23	1648.49	328.47	1329.11	306.32	1620.72	1229.01	959.38	2241.63	1087.13	1649.67		592.08	2088.03	635.0	716.48	1695.39	1600.94	2270.55	1685.02	835.04	2545.73	2025.36	389.1	1144.57	2138.37	931.92	1156.46	2372.91	597.1	1669.68	665.62	1253.43	1359.14	242.17	350.63	1222.47	626.0	486.56	1486.72	2119.85	1542.0	937.66	897.74	1881.01	1161.38	1240.12	1792.31	531.05	529.31	1616.28	608.35	998.46	1353.46	1524.56	1958.56	1116.61	786.66	1289.82	1765.8	1280.32	321.34	1567.52	917.61	857.18	1173.61	890.52	746.02	1585.85	2213.04	1601.48	331.85	926.46	2074.79	1474.65	878.68	1354.29	1342.66	
843.98	2031.98	1291.6	1244.0	2096.23	1464.66	773.98	1081.0	620.79	1388.04	1481.31	584.13	2212.78	1662.7	1721.59	1918.1	2460.91	2165.0	2629.91	1215.3	1000.56	1827.16	1853.56	2067.43	648.01	1776.45	336.94	1408.2	991.93	1404.64	2413.46	819.32	1698.57	592.08		2463.99	1221.52	1149.34	1938.72	1886.64	2621.56	1893.28	1185.78	2954.0	2393.64	686.21	1724.85	2295.76	1284.36	1535.2	2423.24	1071.2	1841.41	1198.3	1729.8	1840.47	511.86	854.73	898.39	781.29	105.55	1906.98	2323.18	1689.4	1500.98	732.65	2202.19	1419.41	1656.49	2017.02	413.58	1114.14	1675.78	684.15	1455.67	1037.47	1911.6	2260.69	1666.64	1255.02	1842.33	1893.41	1350.74	804.51	1604.09	1262.1	931.19	1726.88	1133.95	854.43	1356.07	2622.79	1533.01	359.46	887.72	2486.12	1190.76	722.93	1089.77	1810.63	
2910.25	604.2	3456.44	1591.8	3235.88	1531.87	1795.48	3415.15	2396.31	3087.12	3617.25	2779.63	540.01	989.85	1483.27	575.78	159.67	322.6	288.09	2430.71	2832.18	1156.6	1185.53	465.9	2383.74	2755.39	2352.37	3708.09	3315.46	2558.83	899.73	3167.13	1310.87	2088.03	2463.99		1936.38	2467.94	3449.18	3304.16	212.08	821.03	1283.79	509.28	76.55	2434.17	2022.69	934.32	2717.45	938.36	1391.06	1494.29	3525.9	1487.0	908.86	2662.83	1994.9	1738.91	3292.43	1691.21	2392.31	2930.19	755.51	1062.95	2126.74	1955.86	3456.88	3006.34	2784.21	3558.2	2606.79	1967.66	3590.2	1798.25	2549.01	3428.37	563.72	372.48	2251.85	2426.32	2296.14	1051.05	1372.0	1767.16	3562.86	2720.15	1612.23	1241.1	1341.71	2794.37	3673.88	228.4	3654.0	2119.42	3003.03	181.73	3558.01	2966.4	3439.13	2699.39	
1129.45	1803.82	1627.88	1660.09	1387.73	1845.18	618.06	1706.3	715.67	1158.94	1759.79	1124.11	1971.56	1637.75	2058.38	1586.8	2012.1	1618.13	1973.82	494.65	967.16	874.65	874.59	1470.5	687.79	914.16	902.92	1934.8	1612.88	634.7	2342.32	1515.74	1927.82	635.0	1221.52	1936.38		538.52	1523.89	1387.07	2142.42	1795.65	954.22	2316.23	1890.29	702.81	511.77	2262.68	782.21	1130.94	2592.18	639.05	1589.61	512.53	1027.52	881.8	816.64	567.21	1669.01	1040.35	1116.31	1094.36	2193.7	1737.44	342.55	1427.34	1587.85	1071.42	893.16	1632.34	1041.38	107.87	1670.59	1084.61	636.92	1778.82	1415.73	1923.06	534.8	490.33	693.27	1955.22	1588.3	607.77	1653.26	786.38	1252.67	762.53	1121.93	985.08	1918.25	2000.01	1787.54	951.47	1224.28	1868.91	1862.66	1278.46	1741.29	890.45	
698.55	2291.3	1127.84	1969.26	1012.98	2178.03	899.4	1271.26	528.56	620.92	1242.01	800.19	2466.0	2073.76	2415.34	2086.05	2537.05	2147.61	2512.07	85.09	476.69	1408.21	1404.59	2002.3	501.77	630.25	819.33	1454.21	1188.13	255.91	2812.9	1131.83	2310.62	716.48	1149.34	2467.94	538.52		1032.79	915.54	2671.78	2255.97	1384.45	2854.64	2419.25	465.12	793.52	2723.35	255.43	1622.63	3012.92	1070.84	1066.51	1001.68	1560.31	692.72	958.57	895.06	1286.72	1317.17	1059.65	775.61	2672.64	2160.16	534.66	1613.66	1173.23	540.24	526.01	1137.87	812.89	501.15	1132.13	1317.53	306.43	1372.54	1935.27	2432.16	618.92	125.63	781.04	2384.1	1948.52	908.07	1116.34	254.0	1549.51	1297.43	1509.59	550.44	1447.21	2537.48	1265.32	1027.0	783.03	2405.61	1425.91	899.98	1310.31	661.29	
1123.95	3317.74	1020.68	2966.85	465.15	3182.71	1920.76	1376.2	1407.3	550.84	959.44	1381.55	3489.73	3106.29	3427.37	3106.77	3532.47	3135.24	3457.12	1043.99	938.78	2325.16	2309.16	2985.01	1393.98	765.54	1676.2	1314.01	1358.96	891.5	3844.3	1438.85	3332.5	1695.39	1938.72	3449.18	1523.89	1032.79		160.15	3658.0	3288.21	2417.23	3792.68	3407.12	1334.33	1507.26	3755.83	781.18	2645.95	4042.11	2102.98	238.6	2022.23	2543.27	907.4	1929.86	1923.97	1540.57	2319.53	1882.02	647.06	3702.2	3191.36	1335.74	2556.63	366.09	536.62	682.79	109.04	1525.99	1516.24	581.85	2301.96	900.44	1531.86	2939.28	3446.52	1255.93	1038.48	1296.4	3415.66	2966.39	1932.59	653.69	789.4	2551.79	2224.71	2538.37	1084.72	1352.82	3491.77	934.02	1954.33	1120.88	3366.59	1471.24	1325.4	1414.3	848.25	
1099.94	3187.12	1077.04	2870.97	345.65	3084.12	1812.4	1417.1	1328.44	518.12	1041.64	1348.75	3357.26	2986.99	3325.49	2973.19	3390.26	2991.91	3306.85	917.71	889.27	2174.38	2157.35	2840.99	1312.43	605.56	1607.37	1390.12	1388.91	752.41	3718.15	1451.0	3224.88	1600.94	1886.64	3304.16	1387.07	915.54	160.15		3513.68	3164.03	2296.37	3641.24	3263.44	1254.74	1349.99	3632.09	672.17	2514.37	3928.38	1979.93	364.9	1890.96	2400.3	747.3	1839.26	1810.55	1564.65	2220.55	1823.01	489.4	3573.84	3075.04	1184.66	2477.02	327.98	467.24	527.8	263.74	1477.94	1385.98	684.26	2209.26	756.06	1570.09	2800.1	3309.87	1098.82	908.14	1136.46	3298.68	2861.06	1822.4	745.16	684.28	2453.34	2075.3	2425.13	1040.4	1423.38	3342.58	1022.94	1874.83	1110.58	3218.47	1524.75	1314.06	1456.84	688.1	
3098.67	664.82	3646.1	1677.81	3447.63	1591.49	1976.73	3593.95	2583.77	3289.84	3809.43	2960.01	544.1	1074.01	1509.02	706.34	162.27	524.38	389.4	2636.22	3028.05	1368.66	1397.42	673.03	2572.28	2966.9	2526.89	3891.21	3494.42	2767.15	815.16	3343.06	1348.75	2270.55	2621.56	212.08	2142.42	2671.78	3658.0	3513.68		875.18	1452.8	446.75	252.56	2624.04	2234.76	876.02	2922.38	1114.71	1313.79	1681.27	3731.97	1684.57	1115.58	2874.81	2165.24	1923.66	3464.91	1842.72	2554.3	3141.92	696.35	1127.84	2337.62	2077.69	3668.4	3210.97	2994.61	3767.0	2783.46	2170.9	3790.71	1946.73	2758.15	3601.91	749.74	406.05	2463.74	2632.67	2508.13	1073.16	1462.74	1949.22	3761.76	2924.58	1744.03	1452.95	1490.09	2985.87	3855.45	315.63	3847.1	2283.56	3190.61	355.29	3734.66	3147.14	3616.8	2911.22	
2516.9	216.95	3059.15	811.47	3183.01	717.06	1405.0	2939.81	2015.02	2833.96	3237.88	2330.31	349.36	231.91	668.68	362.17	724.95	712.16	1097.56	2246.47	2508.78	1334.96	1380.32	772.12	2012.12	2705.54	1879.93	3256.56	2843.12	2419.97	559.45	2678.7	491.14	1685.02	1893.28	821.03	1795.65	2255.97	3288.21	3164.03	875.18		873.96	1308.72	747.65	2071.39	2081.1	468.12	2509.98	683.08	835.77	1185.23	3309.94	1283.12	969.43	2653.58	1514.68	1381.28	2780.85	1127.2	1846.12	2886.54	436.99	253.82	2084.62	1258.76	3382.7	2782.97	2688.02	3393.78	2138.38	1780.62	3295.54	1212.22	2429.28	2920.52	617.65	470.01	2254.89	2256.46	2356.29	260.0	606.01	1385.47	3250.42	2504.8	965.09	1356.73	798.33	2431.05	3212.3	1047.13	3282.11	1596.0	2600.17	955.32	3066.61	2514.08	2956.13	2672.59	
1673.26	936.4	2221.13	792.32	2335.63	935.29	543.66	2144.36	1161.21	1960.61	2393.58	1513.88	1118.94	691.1	1121.54	768.3	1295.73	979.62	1444.68	1379.1	1643.12	857.43	900.28	883.7	1154.84	1867.49	1074.99	2447.44	2045.13	1559.84	1433.03	1891.31	978.78	835.04	1185.78	1283.79	954.22	1384.45	2417.23	2296.37	1452.8	873.96		1768.56	1215.81	1211.97	1330.39	1339.87	1637.52	349.43	1640.98	318.82	2435.98	460.05	608.23	1833.56	712.49	510.17	2012.11	444.69	1110.0	2046.96	1299.91	784.97	1273.03	827.31	2527.08	1909.09	1834.97	2522.13	1332.89	922.78	2428.25	556.39	1574.09	2149.18	726.33	1124.64	1457.59	1391.76	1586.26	1005.7	663.21	520.54	2386.37	1631.76	490.32	804.31	209.98	1575.45	2409.11	1437.04	2435.25	836.26	1761.38	1300.35	2283.13	1701.0	2166.1	1844.43	
3350.02	1093.46	3890.69	2096.81	3534.13	2025.44	2257.87	3873.99	2841.29	3475.13	4043.77	3237.68	988.53	1492.77	1953.55	1085.02	584.23	789.01	343.74	2807.95	3250.39	1467.71	1483.91	897.67	2826.14	3065.02	2822.39	4157.41	3774.29	2913.86	1242.04	3631.79	1790.11	2545.73	2954.0	509.28	2316.23	2854.64	3792.68	3641.24	446.75	1308.72	1768.56		585.53	2872.87	2311.46	1314.13	3095.71	1419.28	1736.97	1948.65	3891.55	1913.16	1311.71	2956.12	2472.7	2195.12	3762.28	2188.63	2878.19	3231.78	1136.69	1557.88	2456.99	2464.38	3760.58	3384.31	3114.16	3901.33	3072.2	2363.04	3986.29	2297.25	2896.31	3896.22	1042.4	840.0	2555.54	2798.09	2569.72	1517.44	1878.0	2228.32	3966.02	3101.42	2119.01	1570.54	1842.59	3226.46	4126.56	333.22	4077.55	2604.02	3444.48	471.48	4020.36	3423.03	3899.98	2999.91	
2850.51	531.18	3397.41	1515.36	3202.14	1456.78	1732.17	3351.22	2336.01	3037.29	3559.63	2716.23	478.22	913.71	1411.86	499.81	143.89	272.18	353.74	2383.91	2776.82	1129.25	1160.42	422.57	2323.98	2720.48	2286.69	3645.95	3251.58	2516.0	856.25	3102.12	1238.18	2025.36	2393.64	76.55	1890.29	2419.25	3407.12	3263.44	252.56	747.65	1215.81	585.53		2375.12	1993.67	882.68	2669.96	872.41	1342.08	1433.46	3479.75	1432.67	864.04	2631.04	1927.74	1677.11	3226.27	1619.32	2322.98	2896.38	706.16	987.93	2089.66	1880.31	3421.87	2958.5	2745.58	3516.1	2541.94	1918.35	3538.38	1725.86	2507.65	3362.57	501.24	308.86	2219.3	2380.59	2268.86	981.18	1295.5	1704.17	3509.74	2672.09	1537.44	1209.09	1269.02	2736.28	3611.08	299.54	3596.93	2050.54	2942.88	227.69	3493.31	2903.18	3374.78	2666.24	
477.25	2148.35	1022.32	1642.46	1427.13	1862.25	668.92	1025.37	73.76	806.23	1186.84	421.34	2330.86	1863.82	2112.74	1972.11	2475.33	2112.72	2530.55	535.99	441.94	1518.81	1529.58	1982.1	61.68	1090.25	364.8	1287.53	928.19	719.22	2628.98	817.1	2034.57	389.1	686.21	2434.17	702.81	465.12	1334.33	1254.74	2624.04	2071.39	1211.97	2872.87	2375.12		1141.54	2526.66	610.51	1517.22	2760.12	943.47	1290.21	960.44	1563.32	1157.81	604.05	706.77	968.6	1007.81	600.65	1222.95	2505.02	1931.1	890.61	1223.2	1553.9	797.8	971.91	1426.4	364.54	604.83	1227.23	976.03	771.4	1083.4	1874.42	2328.74	1029.43	577.09	1202.92	2154.88	1664.76	691.44	1179.33	590.6	1235.5	1406.0	1278.99	364.18	1260.87	2542.86	1226.44	620.66	571.64	2405.52	1179.65	582.68	1057.23	1125.79	
1487.58	2039.83	1908.88	2096.47	1223.1	2261.4	1112.85	2064.07	1173.48	1317.36	2004.3	1547.81	2185.84	1964.2	2451.2	1806.37	2130.64	1730.98	1986.0	711.8	1269.4	866.23	839.62	1577.73	1143.61	756.37	1397.9	2242.2	1979.34	702.43	2593.26	1911.94	2301.71	1144.57	1724.85	2022.69	511.77	793.52	1507.26	1349.99	2234.76	2081.1	1330.39	2311.46	1993.67	1141.54		2532.43	944.77	1398.7	2910.03	1049.54	1643.41	874.11	1165.47	645.28	1326.89	1051.03	2067.59	1514.3	1620.4	920.34	2433.3	2076.13	260.36	1919.59	1449.14	1198.71	825.65	1613.59	1502.03	615.43	1820.34	1572.11	662.13	2160.83	1585.14	2101.3	251.37	678.13	279.31	2278.92	1992.27	1097.75	1827.42	962.06	1709.08	786.13	1525.98	1338.21	2238.02	2028.85	2020.28	1463.24	1574.81	1913.66	2219.1	1675.28	2102.78	688.57	
2963.02	505.17	3500.49	1106.52	3649.46	933.41	1864.2	3361.76	2467.97	3297.46	3681.91	2765.73	421.88	662.92	752.37	740.33	784.39	984.65	1218.24	2714.48	2966.3	1748.99	1792.17	1096.26	2466.63	3170.94	2315.65	3683.02	3266.85	2888.0	125.4	3099.11	655.83	2138.37	2295.76	934.32	2262.68	2723.35	3755.83	3632.09	876.02	468.12	1339.87	1314.13	882.68	2526.66	2532.43		2977.05	1141.8	461.09	1652.89	3775.03	1750.2	1391.22	3115.95	1955.45	1844.38	3192.39	1555.75	2259.38	3351.99	180.71	609.27	2547.1	1611.07	3850.17	3248.7	3155.43	3861.22	2571.25	2248.69	3753.17	1629.2	2896.99	3331.94	993.07	583.85	2714.22	2724.57	2809.65	405.12	949.85	1846.01	3705.84	2971.55	1367.14	1785.24	1247.85	2883.25	3636.16	1150.63	3727.39	2022.85	3043.67	1109.83	3482.3	2946.71	3375.54	3136.39	
655.4	2546.69	973.84	2199.69	816.63	2412.16	1141.39	1181.33	683.23	385.65	1059.84	833.07	2721.43	2325.61	2653.34	2341.33	2789.17	2398.02	2754.12	287.92	398.03	1639.46	1632.39	2251.57	662.65	532.43	974.68	1314.06	1111.08	251.68	3067.38	1091.93	2553.95	931.92	1284.36	2717.45	782.21	255.43	781.18	672.17	2922.38	2509.98	1637.52	3095.71	2669.96	610.51	944.77	2977.05		1878.0	3261.18	1325.22	812.02	1256.63	1808.87	643.5	1172.25	1142.85	1240.09	1548.72	1206.22	631.25	2927.68	2410.19	703.12	1818.45	950.98	289.21	388.9	884.95	902.7	754.03	900.64	1539.93	305.28	1303.33	2188.42	2686.94	725.75	299.47	857.96	2634.51	2189.35	1152.32	895.07	26.0	1781.53	1530.75	1757.38	528.64	1317.15	2781.58	1075.55	1219.84	718.98	2650.94	1328.96	881.51	1222.5	593.49	
1988.57	673.03	2536.92	943.51	2512.43	1016.48	862.36	2479.5	1473.4	2225.02	2704.05	1845.3	843.94	581.29	1134.58	464.11	961.38	630.5	1095.75	1602.49	1934.09	712.15	759.09	536.9	1463.46	2031.83	1414.31	2776.78	2379.92	1763.61	1214.39	2229.74	960.67	1156.46	1535.2	938.36	1130.94	1622.63	2645.95	2514.37	1114.71	683.08	349.43	1419.28	872.41	1517.22	1398.7	1141.8	1878.0		1512.2	575.31	2688.25	623.75	367.33	1974.24	1056.9	812.02	2354.14	782.3	1458.97	2212.87	1063.2	700.33	1405.51	1123.59	2717.32	2160.28	2023.23	2753.34	1669.64	1129.71	2710.85	893.65	1767.85	2490.25	377.51	816.21	1572.9	1607.67	1673.32	886.63	752.13	835.24	2675.18	1875.94	768.62	705.64	462.43	1880.95	2740.76	1087.62	2743.47	1184.92	2079.42	950.95	2621.02	2032.43	2502.7	1995.35	
3164.46	940.71	3683.83	1179.55	3976.54	962.17	2122.94	3504.16	2695.3	3555.04	3870.41	2944.55	881.78	955.16	711.25	1166.67	1237.67	1441.42	1671.7	3014.58	3201.75	2167.44	2212.21	1545.8	2698.63	3506.34	2503.68	3831.01	3414.01	3199.58	498.66	3242.02	731.96	2372.91	2423.24	1391.06	2592.18	3012.92	4042.11	3928.38	1313.79	835.77	1640.98	1736.97	1342.08	2760.12	2910.03	461.09	3261.18	1512.2		1959.73	4038.7	2084.3	1803.16	3464.81	2163.53	2118.46	3317.35	1755.23	2406.02	3686.43	636.04	856.08	2897.62	1697.38	4167.26	3519.85	3475.89	4144.49	2747.98	2563.73	3982.29	1805.45	3214.92	3454.74	1426.18	1044.94	3073.79	3029.54	3182.82	637.19	1099.45	2109.92	3927.5	3252.75	1536.73	2192.26	1503.8	3102.53	3779.3	1602.36	3918.79	2200.91	3237.42	1568.51	3611.16	3116.68	3512.8	3479.58	
1417.39	1227.52	1964.99	1046.98	2017.03	1217.54	313.03	1925.71	902.59	1658.67	2130.1	1289.32	1406.19	1009.38	1422.21	1035.72	1531.88	1174.73	1610.61	1062.24	1359.08	775.67	808.69	1051.41	891.06	1550.34	880.61	2214.26	1825.98	1241.23	1742.16	1683.53	1288.84	597.1	1071.2	1494.29	639.05	1070.84	2102.98	1979.93	1681.27	1185.23	318.82	1948.65	1433.46	943.47	1049.54	1652.89	1325.22	575.31	1959.73		2129.09	188.94	666.36	1520.52	559.88	246.47	1816.33	505.78	978.46	1729.38	1603.48	1103.67	966.07	932.88	2208.31	1601.05	1516.17	2208.57	1124.91	604.0	2138.02	594.12	1255.27	1948.91	932.25	1390.58	1154.22	1073.91	1292.18	1324.49	954.21	282.41	2100.89	1320.62	668.0	688.32	485.6	1306.57	2181.03	1615.94	2168.98	712.98	1509.48	1477.69	2071.71	1475.19	1951.38	1529.34	
1002.9	3354.73	810.7	2932.6	699.12	3152.42	1918.1	1175.25	1360.24	484.81	730.99	1265.68	3530.8	3117.85	3402.29	3152.03	3600.24	3207.63	3552.15	1096.01	861.96	2426.15	2414.23	3060.06	1351.69	934.43	1607.77	1086.77	1168.67	978.45	3868.87	1266.17	3318.92	1669.68	1841.41	3525.9	1589.61	1066.51	238.6	364.9	3731.97	3309.94	2435.98	3891.55	3479.75	1290.21	1643.41	3775.03	812.02	2688.25	4038.7	2129.09		2068.18	2617.05	1083.79	1894.15	1931.38	1354.04	2295.09	1795.6	844.34	3732.46	3196.15	1446.56	2496.54	599.71	528.28	824.25	229.87	1428.74	1566.0	346.7	2266.23	1000.57	1331.84	3000.23	3498.67	1393.82	1099.61	1457.41	3421.01	2949.87	1933.39	423.47	812.63	2524.64	2321.22	2540.1	993.68	1128.77	3582.67	702.05	1899.37	981.79	3454.0	1258.69	1182.49	1211.47	1021.5	
1437.23	1296.17	1977.83	1225.68	1900.04	1387.29	424.59	1973.63	932.64	1611.46	2133.65	1341.34	1467.53	1129.14	1581.11	1085.39	1543.62	1164.4	1570.43	979.02	1345.35	628.86	656.07	1027.37	915.66	1424.24	967.92	2247.28	1874.5	1141.16	1830.76	1742.79	1438.28	665.62	1198.3	1487.0	512.53	1001.68	2022.23	1890.96	1684.57	1283.12	460.05	1913.16	1432.67	960.44	874.11	1750.2	1256.63	623.75	2084.3	188.94	2068.18		602.9	1380.93	690.08	343.58	1883.05	693.25	1099.76	1604.98	1683.72	1232.36	816.01	1119.81	2100.07	1541.14	1405.32	2129.67	1194.23	506.01	2107.15	777.79	1147.58	2010.96	939.12	1430.5	998.46	983.93	1126.44	1447.12	1118.8	394.46	2077.21	1255.58	855.46	530.42	651.87	1313.67	2218.79	1584.27	2169.11	848.14	1532.01	1447.54	2124.11	1522.73	2002.25	1395.35	
2039.98	888.22	2579.17	1307.14	2350.36	1383.47	978.79	2573.99	1534.83	2180.44	2732.26	1939.62	1023.29	920.78	1492.32	652.13	990.14	592.0	968.4	1521.92	1939.86	366.08	412.04	443.02	1518.33	1866.94	1545.35	2850.09	2474.62	1652.01	1440.05	2339.01	1313.97	1253.43	1729.8	908.86	1027.52	1560.31	2543.27	2400.3	1115.58	969.43	608.23	1311.71	864.04	1563.32	1165.47	1391.22	1808.87	367.33	1803.16	666.36	2617.05	602.9		1786.54	1222.15	907.41	2475.89	1046.4	1640.64	2045.1	1276.81	1042.0	1233.0	1434.15	2566.83	2097.89	1884.9	2652.22	1784.41	1061.33	2686.42	1156.54	1644.29	2606.26	419.67	936.36	1374.63	1517.5	1444.73	1204.2	1119.29	947.89	2662.02	1811.9	1088.78	394.41	784.06	1914.96	2821.21	985.15	2766.43	1370.35	2134.85	849.99	2723.3	2122.69	2601.81	1817.44	
1298.84	2637.28	1559.6	2532.24	578.01	2723.31	1461.59	1810.57	1220.06	897.83	1602.43	1462.19	2793.38	2509.72	2939.76	2408.98	2765.87	2365.05	2631.28	625.48	1041.48	1508.3	1483.54	2211.71	1192.5	152.04	1507.49	1903.27	1746.42	442.12	3186.71	1735.05	2809.36	1359.14	1840.47	2662.83	881.8	692.72	907.4	747.3	2874.81	2653.58	1833.56	2956.12	2631.04	1157.81	645.28	3115.95	643.5	1974.24	3464.81	1520.52	1083.79	1380.93	1786.54		1592.55	1427.69	1882.06	1895.01	1748.49	278.5	3031.4	2613.15	568.97	2245.05	804.95	768.83	296.83	1007.33	1500.6	934.16	1331.24	1920.7	387.13	1939.64	2203.42	2721.12	412.28	586.61	396.88	2827.74	2469.26	1459.14	1362.03	669.36	2117.8	1422.12	2003.65	1168.72	1916.32	2673.88	1603.64	1687.04	1361.22	2557.72	1952.55	1524.09	1852.2	63.7	
1008.48	1620.23	1545.62	1039.11	1971.14	1258.28	266.31	1437.42	535.41	1409.82	1726.46	816.41	1804.14	1295.29	1508.82	1474.73	2007.75	1685.9	2141.87	995.35	1041.88	1318.25	1346.14	1578.19	542.49	1567.9	367.69	1747.23	1338.88	1199.98	2063.88	1181.35	1434.67	242.17	511.86	1994.9	816.64	958.57	1929.86	1839.26	2165.24	1514.68	712.49	2472.7	1927.74	604.05	1326.89	1955.45	1172.25	1056.9	2163.53	559.88	1894.15	690.08	1222.15	1592.55		348.01	1299.76	408.37	418.81	1727.43	1951.67	1350.33	1141.95	656.73	2122.25	1394.1	1481.6	2025.02	627.44	718.81	1818.83	372.68	1237.75	1437.15	1433.95	1828.12	1327.59	1026.19	1497.25	1571.09	1064.97	295.79	1764.32	1157.27	632.17	1220.33	717.48	939.05	1705.87	2139.77	1772.04	158.4	1088.22	2001.92	1573.13	1001.57	1457.49	1578.58	
1176.55	1445.01	1724.93	1105.07	1882.03	1301.41	81.71	1679.32	661.4	1453.11	1892.94	1042.94	1626.6	1186.57	1529.27	1265.35	1772.52	1420.21	1856.92	902.12	1133.48	972.43	999.22	1297.86	651.89	1434.77	638.14	1969.17	1579.59	1096.05	1940.72	1437.2	1417.22	350.63	854.73	1738.91	567.21	895.06	1923.97	1810.55	1923.66	1381.28	510.17	2195.12	1677.11	706.77	1051.03	1844.38	1142.85	812.02	2118.46	246.47	1931.38	343.58	907.41	1427.69	348.01		1570.74	473.27	756.46	1608.42	1809.76	1267.84	909.71	868.56	2059.95	1406.65	1379.24	2026.99	879.1	495.04	1918.13	521.42	1119.67	1702.87	1175.94	1621.97	1101.92	921.33	1258.97	1492.44	1059.18	53.76	1876.81	1134.88	690.42	872.97	614.71	1070.94	1935.34	1862.41	1933.07	506.4	1267.57	1724.15	1825.24	1228.97	1704.92	1426.75	
592.08	2907.1	570.35	2137.99	1875.72	2356.07	1504.91	222.09	970.28	1071.85	732.61	550.28	3090.01	2552.22	2611.32	2772.86	3307.5	2979.85	3426.23	1371.75	843.32	2475.88	2489.86	2864.72	994.09	1759.73	940.48	535.36	186.99	1472.61	3309.07	155.65	2595.77	1222.47	898.39	3292.43	1669.01	1286.72	1540.57	1564.65	3464.91	2780.85	2012.11	3762.28	3226.27	968.6	2067.59	3192.39	1240.09	2354.14	3317.35	1816.33	1354.04	1883.05	2475.89	1882.06	1299.76	1570.74		1655.53	935.01	1814.17	3214.17	2584.62	1807.65	1620.54	1887.53	1176.19	1606.49	1577.38	691.71	1573.15	1063.99	1568.97	1530.98	139.71	2729.72	3124.13	1905.43	1411.12	2063.71	2791.01	2249.03	1534.82	976.77	1214.56	1825.65	2364.33	2000.49	737.01	475.84	3429.1	785.53	1190.65	521.11	3290.81	294.01	393.42	211.38	1829.14	
1414.33	1253.51	1946.15	652.1	2325.02	863.65	433.53	1812.7	941.28	1810.27	2129.16	1210.03	1435.62	901.41	1108.54	1137.75	1681.5	1402.19	1873.99	1339.4	1448.19	1250.11	1288.24	1318.98	946.14	1893.2	760.32	2130.56	1716.23	1540.68	1667.21	1551.5	1027.16	626.0	781.29	1691.21	1040.35	1317.17	2319.53	2220.55	1842.72	1127.2	444.69	2188.63	1619.32	1007.81	1514.3	1555.75	1548.72	782.3	1755.23	505.78	2295.09	693.25	1046.4	1895.01	408.37	473.27	1655.53		723.22	2062.69	1562.77	947.68	1382.89	427.2	2490.31	1786.82	1825.55	2417.44	1015.56	966.57	2227.07	111.83	1570.4	1795.04	1150.1	1479.46	1575.13	1364.21	1730.98	1166.1	657.3	436.61	2172.67	1536.29	232.82	1175.84	353.0	1347.41	2085.55	1860.76	2175.67	469.05	1491.65	1726.31	1939.8	1391.18	1828.94	1890.82	
809.65	1976.71	1286.82	1230.57	2021.25	1453.55	676.47	1103.91	532.2	1332.9	1475.85	558.46	2158.81	1617.23	1711.28	1853.7	2394.48	2089.45	2551.21	1123.01	943.63	1728.36	1753.98	1987.87	558.05	1688.82	241.02	1428.24	1010.84	1315.49	2375.15	840.91	1677.01	486.56	105.55	2392.31	1116.31	1059.65	1882.02	1823.01	2554.3	1846.12	1110.0	2878.19	2322.98	600.65	1620.4	2259.38	1206.22	1458.97	2406.02	978.46	1795.6	1099.76	1640.64	1748.49	418.81	756.46	935.01	723.22		1823.59	2279.17	1650.79	1398.23	732.7	2134.61	1356.24	1572.55	1963.74	371.19	1009.02	1647.54	634.0	1365.31	1074.72	1836.28	2200.16	1565.61	1162.11	1741.21	1859.78	1321.42	707.29	1579.16	1184.78	892.27	1627.01	1072.78	802.71	1379.06	2546.12	1526.38	274.43	863.25	2408.9	1223.13	715.79	1116.46	1720.34	
1258.22	2881.48	1422.53	2710.26	305.76	2909.8	1631.5	1712.55	1292.36	763.1	1436.23	1459.82	3041.88	2732.11	3135.43	2656.44	3029.59	2628.61	2905.25	732.07	1003.67	1778.66	1755.48	2475.51	1268.06	181.07	1586.26	1760.51	1660.71	527.44	3427.26	1676.66	3013.91	1486.72	1906.98	2930.19	1094.36	775.61	647.06	489.4	3141.92	2886.54	2046.96	3231.78	2896.38	1222.95	920.34	3351.99	631.25	2212.87	3686.43	1729.38	844.34	1604.98	2045.1	278.5	1727.43	1608.42	1814.17	2062.69	1823.59		3274.62	2831.29	813.95	2384.12	529.02	643.74	251.25	741.49	1533.42	1127.99	1126.04	2075.81	492.6	1853.01	2458.99	2976.01	679.36	702.19	675.03	3049.55	2664.36	1633.47	1169.28	655.86	2291.37	1689.19	2205.01	1148.1	1781.7	2946.7	1429.62	1802.37	1303.99	2828.93	1843.81	1487.69	1754.23	232.02	
2953.18	394.32	3495.95	1179.65	3575.11	1029.85	1837.16	3375.42	2449.71	3259.68	3674.35	2767.25	265.24	662.07	880.0	627.09	604.19	827.02	1038.29	2658.36	2940.76	1626.07	1667.7	948.63	2446.17	3093.7	2316.83	3692.91	3278.99	2824.87	166.29	3113.94	755.91	2119.85	2323.18	755.51	2193.7	2672.64	3702.2	3573.84	696.35	436.99	1299.91	1136.69	706.16	2505.02	2433.3	180.71	2927.68	1063.2	636.04	1603.48	3732.46	1683.72	1276.81	3031.4	1951.67	1809.76	3214.17	1562.77	2279.17	3274.62		640.64	2464.2	1664.88	3780.52	3204.51	3086.36	3808.76	2575.16	2187.86	3727.0	1645.25	2830.43	3353.88	865.58	414.77	2625.16	2665.84	2712.02	478.24	999.99	1816.61	3683.27	2923.69	1392.3	1670.77	1235.09	2865.76	3648.28	970.3	3718.37	2031.79	3036.82	932.47	3501.04	2950.9	3391.28	3054.95	
2358.79	464.66	2893.62	559.36	3120.6	468.92	1278.15	2752.63	1869.99	2714.6	3076.02	2157.61	601.64	121.24	469.2	543.0	975.53	914.25	1331.92	2159.78	2372.54	1403.8	1450.58	944.04	1870.34	2651.47	1707.99	3073.75	2657.62	2343.69	724.46	2490.05	283.62	1542.0	1689.4	1062.95	1737.44	2160.16	3191.36	3075.04	1127.84	253.82	784.97	1557.88	987.93	1931.1	2076.13	609.27	2410.19	700.33	856.08	1103.67	3196.15	1232.36	1042.0	2613.15	1350.33	1267.84	2584.62	947.68	1650.79	2831.29	640.64		2047.91	1025.02	3311.31	2673.57	2619.81	3294.73	1962.73	1707.67	3158.22	1019.94	2358.84	2724.25	765.54	721.96	2227.45	2174.12	2344.03	224.86	361.89	1262.91	3108.22	2402.61	758.97	1405.3	656.11	2283.59	3026.95	1285.82	3122.05	1413.85	2438.01	1185.35	2873.9	2337.97	2766.62	2626.32	
1227.26	2070.37	1656.04	1999.51	1118.28	2180.72	958.79	1804.17	927.48	1084.26	1757.96	1291.13	2228.83	1942.91	2388.21	1843.68	2220.63	1820.02	2122.19	454.37	1011.23	989.74	973.45	1667.48	897.37	634.53	1168.08	1986.75	1719.11	475.09	2618.68	1652.01	2251.51	937.66	1500.98	2126.74	342.55	534.66	1335.74	1184.66	2337.62	2084.62	1273.03	2456.99	2089.66	890.61	260.36	2547.1	703.12	1405.51	2897.62	966.07	1446.56	816.01	1233.0	568.97	1141.95	909.71	1807.65	1382.89	1398.23	813.95	2464.2	2047.91		1766.58	1333.85	971.81	659.17	1444.34	1253.8	425.73	1594.97	1425.78	446.28	1900.48	1645.31	2162.13	192.28	422.86	355.46	2260.87	1920.04	949.61	1595.65	718.08	1594.41	891.32	1451.65	1077.87	1981.16	2158.32	1776.31	1266.05	1314.72	2035.27	1959.37	1415.64	1842.75	590.81	
1534.85	1433.63	2018.44	519.87	2624.76	735.57	809.65	1811.47	1149.8	2019.31	2207.76	1290.09	1601.84	1029.53	991.0	1380.84	1915.9	1699.53	2173.21	1652.05	1634.64	1667.74	1707.42	1642.81	1164.73	2224.26	889.09	2139.2	1723.91	1856.67	1733.52	1550.97	983.18	897.74	732.65	1955.86	1427.34	1613.66	2556.63	2477.02	2077.69	1258.76	827.31	2464.38	1880.31	1223.2	1919.59	1611.07	1818.45	1123.59	1697.38	932.88	2496.54	1119.81	1434.15	2245.05	656.73	868.56	1620.54	427.2	732.7	2384.12	1664.88	1025.02	1766.58		2769.31	2020.55	2137.87	2646.61	1098.28	1341.71	2373.13	348.76	1894.35	1757.56	1458.62	1684.72	1957.12	1682.87	2120.31	1206.18	665.16	822.47	2307.41	1801.74	355.79	1598.26	661.42	1507.39	2085.83	2148.97	2258.59	602.55	1593.87	2021.5	1914.51	1447.38	1818.28	2233.19	
1426.98	3389.17	1382.73	3142.41	228.85	3351.03	2070.56	1732.69	1627.55	845.7	1325.52	1673.53	3553.4	3217.39	3586.71	3167.76	3553.95	3153.12	3434.27	1157.89	1210.52	2307.07	2284.3	3000.28	1609.22	701.5	1912.94	1680.05	1709.43	967.73	3930.07	1776.95	3476.91	1881.01	2202.19	3456.88	1587.85	1173.23	366.09	327.98	3668.4	3382.7	2527.08	3760.58	3421.87	1553.9	1449.14	3850.17	950.98	2717.32	4167.26	2208.31	599.71	2100.07	2566.83	804.95	2122.25	2059.95	1887.53	2490.31	2134.61	529.02	3780.52	3311.31	1333.85	2769.31		786.22	694.75	387.1	1796.8	1604.97	945.99	2487.59	953.89	1887.23	2977.75	3493.46	1207.95	1139.51	1197.75	3532.78	3118.23	2077.4	1019.48	967.62	2722.73	2216.4	2670.4	1362.65	1718.44	3475.59	1299.65	2169.68	1438.56	3357.41	1833.07	1642.0	1771.63	761.04	
651.92	2826.45	792.08	2432.12	716.26	2649.01	1397.01	1068.82	870.9	129.32	837.8	889.5	3002.59	2593.08	2895.32	2624.17	3077.04	2686.65	3042.94	577.04	424.35	1925.94	1917.74	2540.5	857.36	624.89	1143.5	1135.16	1018.09	498.12	3341.62	1044.51	2804.79	1161.38	1419.41	3006.34	1071.42	540.24	536.62	467.24	3210.97	2782.97	1909.09	3384.31	2958.5	797.8	1198.71	3248.7	289.21	2160.28	3519.85	1601.05	528.28	1541.14	2097.89	768.83	1394.1	1406.65	1176.19	1786.82	1356.24	643.74	3204.51	2673.57	971.81	2020.55	786.22		472.27	631.07	1011.39	1041.2	623.31	1766.52	536.77	1209.85	2475.49	2971.59	962.68	586.47	1068.66	2898.37	2437.15	1410.92	629.22	286.5	2018.51	1817.95	2018.11	576.69	1150.31	3070.68	843.54	1418.09	679.76	2940.13	1201.42	876.23	1110.51	707.53	
1034.23	2695.54	1263.8	2475.6	503.02	2678.58	1397.21	1523.58	1041.16	601.11	1305.93	1221.89	2861.05	2524.38	2908.49	2475.56	2874.72	2474.92	2780.64	487.76	776.54	1648.1	1630.28	2323.04	1016.82	154.99	1335.04	1607.23	1463.39	284.87	3235.46	1463.36	2792.42	1240.12	1656.49	2784.21	893.16	526.01	682.79	527.8	2994.61	2688.02	1834.97	3114.16	2745.58	971.91	825.65	3155.43	388.9	2023.23	3475.89	1516.17	824.25	1405.32	1884.9	296.83	1481.6	1379.24	1606.49	1825.55	1572.55	251.25	3086.36	2619.81	659.17	2137.87	694.75	472.27		790.18	1286.82	912.2	1044.69	1834.31	261.18	1656.76	2291.07	2804.9	574.36	461.35	635.16	2840.44	2438.12	1401.08	1070.79	414.41	2055.85	1550.49	1983.97	914.93	1621.24	2817.35	1307.86	1552.99	1088.55	2694.43	1662.77	1262.91	1565.32	235.26	
1191.65	3424.84	1039.81	3063.19	530.73	3279.97	2022.22	1402.85	1498.87	631.05	959.34	1452.14	3597.2	3210.56	3525.78	3214.49	3641.35	3244.2	3565.93	1151.0	1020.37	2433.87	2417.7	3094.0	1486.65	868.12	1762.84	1315.12	1393.09	1000.36	3950.31	1483.78	3433.0	1792.31	2017.02	3558.2	1632.34	1137.87	109.04	263.74	3767.0	3393.78	2522.13	3901.33	3516.1	1426.4	1613.59	3861.22	884.95	2753.34	4144.49	2208.57	229.87	2129.67	2652.22	1007.33	2025.02	2026.99	1577.38	2417.44	1963.74	741.49	3808.76	3294.73	1444.34	2646.61	387.1	631.07	790.18		1603.53	1623.67	572.35	2397.51	1009.48	1559.34	3047.87	3554.73	1362.36	1146.22	1398.89	3519.18	3066.2	2034.61	651.95	892.12	2649.33	2333.59	2641.0	1162.76	1357.99	3600.69	928.62	2044.99	1181.26	3475.59	1488.37	1384.83	1439.55	949.32	
438.55	2247.66	935.99	1582.21	1701.79	1806.15	814.33	811.53	329.24	975.16	1122.5	196.57	2431.55	1915.62	2063.54	2099.44	2627.79	2291.98	2735.28	890.02	589.29	1797.96	1814.96	2174.53	358.8	1418.41	259.76	1119.9	712.46	1058.49	2682.63	560.39	2016.2	531.05	413.58	2606.79	1041.38	812.89	1525.99	1477.94	2783.46	2138.38	1332.89	3072.2	2541.94	364.54	1502.03	2571.25	902.7	1669.64	2747.98	1124.91	1428.74	1194.23	1784.41	1500.6	627.44	879.1	691.71	1015.56	371.19	1533.42	2575.16	1962.73	1253.8	1098.28	1796.8	1011.39	1286.82	1603.53		936.96	1276.85	947.02	1113.98	824.12	2043.26	2454.03	1393.8	931.87	1566.94	2179.12	1652.44	843.93	1209.52	878.71	1215.35	1688.1	1343.59	441.29	1078.52	2739.12	1171.28	550.01	496.07	2600.81	951.38	375.83	833.4	1463.2	
1044.84	1801.75	1555.31	1598.26	1413.2	1789.73	536.68	1617.85	613.29	1119.49	1693.86	1025.85	1973.54	1612.48	2009.78	1591.1	2035.9	1646.88	2019.62	473.24	898.01	941.59	945.81	1502.34	586.08	950.49	795.06	1855.1	1523.17	639.43	2332.77	1420.84	1885.95	529.31	1114.14	1967.66	107.87	501.15	1516.24	1385.98	2170.9	1780.62	922.78	2363.04	1918.35	604.83	615.43	2248.69	754.03	1129.71	2563.73	604.0	1566.0	506.01	1061.33	934.16	718.81	495.04	1573.15	966.57	1009.02	1127.99	2187.86	1707.67	425.73	1341.71	1604.97	1041.2	912.2	1623.67	936.96		1625.47	1003.19	651.41	1685.58	1434.45	1934.07	615.44	478.17	780.92	1928.28	1538.68	530.21	1603.09	754.72	1185.35	828.31	1077.13	903.44	1836.21	2042.4	1723.86	849.45	1140.38	1909.22	1773.83	1184.57	1651.98	936.11	
838.6	3362.15	497.4	2840.94	1029.01	3064.18	1890.54	866.65	1288.77	515.14	388.66	1092.14	3542.69	3090.55	3319.26	3173.45	3650.77	3268.25	3643.4	1184.12	786.92	2537.81	2531.97	3126.04	1287.88	1179.27	1492.87	743.76	877.16	1121.35	3854.17	1000.26	3253.21	1616.28	1675.78	3590.2	1670.59	1132.13	581.85	684.26	3790.71	3295.54	2428.25	3986.29	3538.38	1227.23	1820.34	3753.17	900.64	2710.85	3982.29	2138.02	346.7	2107.15	2686.42	1331.24	1818.83	1918.13	1063.99	2227.07	1647.54	1126.04	3727.0	3158.22	1594.97	2373.13	945.99	623.31	1044.69	572.35	1276.85	1625.47		2182.29	1158.33	1021.92	3046.17	3527.04	1580.46	1199.65	1673.19	3381.81	2883.69	1910.47	87.71	891.15	2448.72	2428.01	2505.95	880.31	788.81	3667.55	356.28	1795.44	788.14	3534.67	932.01	969.07	899.35	1267.54	
1359.07	1347.86	1882.19	666.51	2329.83	886.49	467.02	1732.92	906.37	1782.16	2067.31	1143.19	1528.65	983.25	1138.7	1240.8	1785.13	1511.74	1984.15	1346.58	1411.32	1351.69	1388.8	1430.13	914.62	1910.14	698.42	2053.84	1637.71	1550.11	1743.41	1470.55	1073.81	608.35	684.15	1798.25	1084.61	1317.53	2301.96	2209.26	1946.73	1212.22	556.39	2297.25	1725.86	976.03	1572.11	1629.2	1539.93	893.65	1805.45	594.12	2266.23	777.79	1156.54	1920.7	372.68	521.42	1568.97	111.83	634.0	2075.81	1645.25	1019.94	1425.78	348.76	2487.59	1766.52	1834.31	2397.51	947.02	1003.19	2182.29		1583.36	1708.67	1260.1	1578.65	1617.29	1374.09	1777.82	1233.34	706.81	477.18	2124.74	1525.88	268.99	1274.07	457.09	1302.18	2007.07	1970.12	2114.98	397.13	1432.38	1836.08	1856.11	1320.61	1747.47	1912.88	
939.99	2440.73	1277.45	2218.88	763.83	2420.16	1140.0	1483.25	834.88	657.37	1355.44	1083.03	2608.04	2263.85	2648.65	2222.98	2634.21	2236.0	2559.06	245.93	688.9	1428.88	1415.27	2085.29	807.85	330.85	1124.64	1618.64	1410.13	58.69	2978.32	1379.68	2531.55	998.46	1455.67	2549.01	636.92	306.43	900.44	756.06	2758.15	2429.28	1574.09	2896.31	2507.65	771.4	662.13	2896.99	305.28	1767.85	3214.92	1255.27	1000.57	1147.58	1644.29	387.13	1237.75	1119.67	1530.98	1570.4	1365.31	492.6	2830.43	2358.84	446.28	1894.35	953.89	536.77	261.18	1009.48	1113.98	651.41	1158.33	1583.36		1601.17	2044.87	2556.19	428.16	211.81	552.83	2579.68	2178.03	1142.84	1165.85	327.94	1799.59	1326.32	1722.96	801.45	1622.35	2592.49	1367.59	1319.65	1011.75	2466.59	1632.3	1158.86	1524.15	355.05	
674.08	3046.3	525.22	2275.62	1892.34	2493.13	1638.38	156.6	1090.49	1097.1	663.85	671.68	3229.29	2691.92	2747.97	2910.96	3444.81	3114.96	3559.38	1457.02	912.92	2597.68	2610.42	2998.56	1112.96	1811.31	1076.0	417.61	193.38	1543.45	3448.7	268.63	2734.11	1353.46	1037.47	3428.37	1778.82	1372.54	1531.86	1570.09	3601.91	2920.52	2149.18	3896.22	3362.57	1083.4	2160.83	3331.94	1303.33	2490.25	3454.74	1948.91	1331.84	2010.96	2606.26	1939.64	1437.15	1702.87	139.71	1795.04	1074.72	1853.01	3353.88	2724.25	1900.48	1757.56	1887.23	1209.85	1656.76	1559.34	824.12	1685.58	1021.92	1708.67	1601.17		2865.33	3262.64	1988.65	1495.14	2142.38	2930.41	2388.2	1668.04	934.25	1278.41	1965.28	2485.59	2139.6	822.99	354.87	3563.11	714.36	1329.74	591.8	3424.8	160.82	501.08	122.8	1884.44	
2349.46	488.67	2896.61	1183.09	2763.59	1191.83	1231.79	2851.43	1834.83	2549.55	3059.69	2215.95	606.93	652.49	1234.71	260.45	604.73	253.4	724.09	1905.03	2279.48	760.5	802.2	192.17	1822.97	2279.84	1789.38	3144.95	2751.74	2048.42	1030.8	2603.64	1049.06	1524.56	1911.6	563.72	1415.73	1935.27	2939.28	2800.1	749.74	617.65	726.33	1042.4	501.24	1874.42	1585.14	993.07	2188.42	377.51	1426.18	932.25	3000.23	939.12	419.67	2203.42	1433.95	1175.94	2729.72	1150.1	1836.28	2458.99	865.58	765.54	1645.31	1458.62	2977.75	2475.49	2291.07	3047.87	2043.26	1434.45	3046.17	1260.1	2044.87	2865.33		517.72	1792.1	1904.71	1864.4	873.93	966.67	1203.55	3015.29	2189.09	1104.33	809.19	811.43	2236.13	3110.4	711.77	3097.45	1562.34	2441.72	576.35	2994.39	2402.77	2875.44	2232.8	
2795.83	259.01	3344.21	1272.44	3280.33	1187.01	1665.25	3265.22	2281.8	3039.43	3514.48	2637.61	169.57	669.79	1117.98	356.93	255.79	419.32	660.11	2407.0	2749.66	1261.34	1299.69	554.01	2273.53	2796.58	2194.77	3571.24	3166.4	2557.49	575.6	3009.35	950.84	1958.56	2260.69	372.48	1923.06	2432.16	3446.52	3309.87	406.05	470.01	1124.64	840.0	308.86	2328.74	2101.3	583.85	2686.94	816.21	1044.94	1390.58	3498.67	1430.5	936.36	2721.12	1828.12	1621.97	3124.13	1479.46	2200.16	2976.01	414.77	721.96	2162.13	1684.72	3493.46	2971.59	2804.9	3554.73	2454.03	1934.07	3527.04	1578.65	2556.19	3262.64	517.72		2309.82	2409.07	2380.39	682.98	1058.62	1640.14	3491.24	2686.08	1360.43	1320.55	1127.55	2692.91	3531.98	600.26	3554.98	1934.61	2884.94	535.46	3401.01	2824.55	3285.61	2750.26	
1315.72	2230.85	1699.01	2190.8	984.59	2370.46	1150.28	1881.43	1074.36	1085.09	1782.77	1410.48	2384.53	2120.43	2575.53	2000.96	2353.77	1952.91	2227.01	533.82	1080.77	1099.3	1076.39	1799.59	1044.3	509.48	1330.88	2037.6	1801.83	475.48	2781.95	1750.67	2436.35	1116.61	1666.64	2251.85	534.8	618.92	1255.93	1098.82	2463.74	2254.89	1457.59	2555.54	2219.3	1029.43	251.37	2714.22	725.75	1572.9	3073.79	1154.22	1393.82	998.46	1374.63	412.28	1327.59	1101.92	1905.43	1575.13	1565.61	679.36	2625.16	2227.45	192.28	1957.12	1207.95	962.68	574.36	1362.36	1393.8	615.44	1580.46	1617.29	428.16	1988.65	1792.1	2309.82		494.33	175.73	2437.98	2108.42	1141.51	1591.71	745.75	1786.51	1010.79	1639.7	1168.63	2037.92	2267.72	1795.58	1447.2	1397.25	2149.58	2034.09	1518.67	1921.36	447.79	
821.65	2279.9	1233.2	2014.43	962.18	2218.29	936.48	1391.06	635.94	684.51	1337.96	925.2	2451.33	2082.86	2450.07	2068.31	2502.29	2108.42	2457.02	42.01	592.44	1340.1	1332.92	1960.52	607.71	542.61	921.09	1564.43	1309.47	176.48	2810.04	1256.44	2337.63	786.66	1255.02	2426.32	490.33	125.63	1038.48	908.14	2632.67	2256.46	1391.76	2798.09	2380.59	577.09	678.13	2724.57	299.47	1607.67	3029.54	1073.91	1099.61	983.93	1517.5	586.61	1026.19	921.33	1411.12	1364.21	1162.11	702.19	2665.84	2174.12	422.86	1682.87	1139.51	586.47	461.35	1146.22	931.87	478.17	1199.65	1374.09	211.81	1495.14	1904.71	2409.07	494.33		655.43	2396.62	1980.43	941.16	1191.6	308.7	1594.6	1231.65	1530.91	674.31	1559.89	2485.56	1358.12	1108.31	904.43	2355.8	1544.97	1025.27	1430.51	561.79	
1472.16	2318.36	1829.76	2335.94	969.28	2509.55	1311.32	2030.19	1249.06	1195.42	1901.65	1578.15	2465.06	2233.81	2707.55	2085.22	2406.71	2007.76	2249.43	696.32	1230.5	1139.86	1110.89	1854.67	1219.03	530.9	1506.61	2171.37	1953.54	606.95	2871.64	1909.74	2562.82	1289.82	1842.33	2296.14	693.27	781.04	1296.4	1136.46	2508.13	2356.29	1586.26	2569.72	2268.86	1202.92	279.31	2809.65	857.96	1673.32	3182.82	1292.18	1457.41	1126.44	1444.73	396.88	1497.25	1258.97	2063.71	1730.98	1741.21	675.03	2712.02	2344.03	355.46	2120.31	1197.75	1068.66	635.16	1398.89	1566.94	780.92	1673.19	1777.82	552.83	2142.38	1864.4	2380.39	175.73	655.43		2549.81	2243.89	1300.8	1692.2	880.13	1937.34	1063.57	1775.4	1326.92	2175.12	2294.76	1910.72	1619.63	1550.63	2182.58	2181.07	1680.22	2070.65	450.69	
2579.43	457.05	3112.01	706.23	3340.45	552.38	1503.0	2963.34	2093.27	2939.42	3295.26	2374.64	529.14	318.03	436.11	621.49	936.28	969.89	1334.66	2382.81	2596.5	1570.07	1616.21	1031.99	2094.0	2869.36	1926.01	3286.04	2869.21	2565.45	527.41	2700.43	283.21	1765.8	1893.41	1051.05	1955.22	2384.1	3415.66	3298.68	1073.16	260.0	1005.7	1517.44	981.18	2154.88	2278.92	405.12	2634.51	886.63	637.19	1324.49	3421.01	1447.12	1204.2	2827.74	1571.09	1492.44	2791.01	1166.1	1859.78	3049.55	478.24	224.86	2260.87	1206.18	3532.78	2898.37	2840.44	3519.18	2179.12	1928.28	3381.81	1233.34	2579.68	2930.41	873.93	682.98	2437.98	2396.62	2549.81		545.02	1487.76	3331.23	2627.08	968.08	1582.6	880.95	2506.23	3238.19	1279.37	3341.71	1629.34	2657.65	1197.77	3081.77	2553.64	2976.23	2842.39	
2065.31	800.23	2588.27	221.05	2941.04	274.65	1049.17	2425.18	1598.56	2465.18	2773.85	1848.91	954.86	388.86	471.15	807.53	1304.85	1169.11	1622.24	1960.45	2105.45	1450.28	1496.63	1158.42	1603.11	2488.44	1405.21	2749.57	2332.22	2155.22	1070.8	2162.18	369.87	1280.32	1350.74	1372.0	1588.3	1948.52	2966.39	2861.06	1462.74	606.01	663.21	1878.0	1295.5	1664.76	1992.27	949.85	2189.35	752.13	1099.45	954.21	2949.87	1118.8	1119.29	2469.26	1064.97	1059.18	2249.03	657.3	1321.42	2664.36	999.99	361.89	1920.04	665.16	3118.23	2437.15	2438.12	3066.2	1652.44	1538.68	2883.69	706.81	2178.03	2388.2	966.67	1058.62	2108.42	1980.43	2243.89	545.02		1041.0	2828.24	2178.74	437.83	1423.19	468.82	2003.6	2700.41	1584.94	2821.68	1103.42	2139.18	1470.98	2540.73	2024.13	2436.85	2474.25	
1155.77	1456.93	1704.24	1077.05	1903.18	1277.51	31.14	1648.44	641.81	1452.82	1874.64	1012.53	1639.42	1185.65	1509.45	1283.22	1796.61	1450.02	1891.46	919.94	1124.18	1023.07	1050.51	1330.67	634.57	1461.48	598.2	1942.04	1548.71	1116.89	1944.59	1403.54	1402.63	321.34	804.51	1767.16	607.77	908.07	1932.59	1822.4	1949.22	1385.47	520.54	2228.32	1704.17	691.44	1097.75	1846.01	1152.32	835.24	2109.92	282.41	1933.39	394.46	947.89	1459.14	295.79	53.76	1534.82	436.61	707.29	1633.47	1816.61	1262.91	949.61	822.47	2077.4	1410.92	1401.08	2034.61	843.93	530.21	1910.47	477.18	1142.84	1668.04	1203.55	1640.14	1141.51	941.16	1300.8	1487.76	1041.0		1867.0	1143.22	659.46	924.57	607.19	1055.07	1906.92	1895.3	1915.72	454.07	1245.47	1756.99	1792.88	1199.24	1673.16	1456.25	
772.91	3321.79	409.7	2780.46	1090.81	3004.05	1846.12	778.95	1238.37	511.41	307.53	1021.83	3503.09	3042.94	3259.83	3136.58	3620.03	3240.51	3622.67	1173.25	743.33	2524.5	2520.26	3099.85	1239.21	1210.67	1431.71	663.33	790.02	1125.49	3808.28	915.28	3197.31	1567.52	1604.09	3562.86	1653.26	1116.34	653.69	745.16	3761.76	3250.42	2386.37	3966.02	3509.74	1179.33	1827.42	3705.84	895.07	2675.18	3927.5	2100.89	423.47	2077.21	2662.02	1362.03	1764.32	1876.81	976.77	2172.67	1579.16	1169.28	3683.27	3108.22	1595.65	2307.41	1019.48	629.22	1070.79	651.95	1209.52	1603.09	87.71	2124.74	1165.85	934.25	3015.29	3491.24	1591.71	1191.6	1692.2	3331.23	2828.24	1867.0		883.26	2392.13	2413.77	2458.02	825.5	706.28	3645.19	280.4	1735.11	716.84	3511.44	845.6	892.15	811.7	1298.44	
629.5	2543.68	953.3	2186.74	837.07	2399.9	1131.66	1157.09	663.62	376.09	1042.25	807.49	2718.97	2318.96	2641.91	2339.56	2790.53	2400.29	2759.5	293.82	372.24	1647.29	1640.92	2254.35	643.62	558.36	954.22	1292.79	1086.3	273.27	3062.61	1066.23	2543.95	917.61	1262.1	2720.15	786.38	254.0	789.4	684.28	2924.58	2504.8	1631.76	3101.42	2672.09	590.6	962.06	2971.55	26.0	1875.94	3252.75	1320.62	812.63	1255.58	1811.9	669.36	1157.27	1134.88	1214.56	1536.29	1184.78	655.86	2923.69	2402.61	718.08	1801.74	967.62	286.5	414.41	892.12	878.71	754.72	891.15	1525.88	327.94	1278.41	2189.09	2686.08	745.75	308.7	880.13	2627.08	2178.74	1143.22	883.26		1769.07	1538.08	1749.06	502.67	1295.18	2786.33	1058.91	1202.28	693.47	2655.27	1305.13	855.53	1198.2	619.47	
1627.73	1118.05	2150.88	420.02	2556.12	631.02	659.92	1995.37	1167.52	2039.92	2336.2	1411.69	1294.35	733.5	877.71	1040.48	1581.77	1347.53	1821.92	1570.51	1674.04	1346.03	1388.05	1287.47	1173.84	2120.48	967.38	2317.99	1901.13	1771.02	1483.42	1732.52	805.4	857.18	931.19	1612.23	1252.67	1549.51	2551.79	2453.34	1744.03	965.09	490.32	2119.01	1537.44	1235.5	1709.08	1367.14	1781.53	768.62	1536.73	668.0	2524.64	855.46	1088.78	2117.8	632.17	690.42	1825.65	232.82	892.27	2291.37	1392.3	758.97	1594.41	355.79	2722.73	2018.51	2055.85	2649.33	1215.35	1185.35	2448.72	268.99	1799.59	1965.28	1104.33	1360.43	1786.51	1594.6	1937.34	968.08	437.83	659.46	2392.13	1769.07		1286.88	307.75	1568.41	2270.14	1799.9	2383.93	665.82	1701.35	1670.69	2115.17	1588.09	2008.61	2115.66	
1867.11	1282.62	2383.61	1584.46	1994.84	1696.46	954.4	2431.16	1395.13	1913.79	2520.57	1814.72	1415.56	1285.4	1836.1	1046.53	1344.98	944.93	1232.75	1244.35	1725.59	113.44	127.64	791.64	1372.83	1515.07	1479.86	2680.35	2334.19	1343.32	1834.31	2217.36	1665.15	1173.61	1726.88	1241.1	762.53	1297.43	2224.71	2075.3	1452.95	1356.73	804.31	1570.54	1209.09	1406.0	786.13	1785.24	1530.75	705.64	2192.26	688.32	2321.22	530.42	394.41	1422.12	1220.33	872.97	2364.33	1175.84	1627.01	1689.19	1670.77	1405.3	891.32	1598.26	2216.4	1817.95	1550.49	2333.59	1688.1	828.31	2428.01	1274.07	1326.32	2485.59	809.19	1320.55	1010.79	1231.65	1063.57	1582.6	1423.19	924.57	2413.77	1538.08	1286.88		1011.81	1729.05	2659.19	1267.28	2549.26	1378.49	1963.04	1144.04	2585.65	1987.11	2463.23	1458.3	
1718.82	906.89	2260.86	583.13	2486.79	735.43	622.05	2150.09	1220.15	2058.51	2439.62	1533.86	1090.24	584.93	936.86	784.78	1328.71	1060.35	1534.51	1513.94	1719.34	1060.18	1104.01	989.16	1218.83	2027.57	1084.23	2463.32	2052.37	1703.55	1352.0	1890.96	808.97	890.52	1133.95	1341.71	1121.93	1509.59	2538.37	2425.13	1490.09	798.33	209.98	1842.59	1269.02	1278.99	1525.98	1247.85	1757.38	462.43	1503.8	485.6	2540.1	651.87	784.06	2003.65	717.48	614.71	2000.49	353.0	1072.78	2205.01	1235.09	656.11	1451.65	661.42	2670.4	2018.11	1983.97	2641.0	1343.59	1077.13	2505.95	457.09	1722.96	2139.6	811.43	1127.55	1639.7	1530.91	1775.4	880.95	468.82	607.19	2458.02	1749.06	307.75	1011.81		1635.65	2420.69	1517.46	2484.0	809.86	1801.84	1384.93	2281.37	1718.64	2168.26	2010.39	
149.5	2511.65	664.23	1962.73	1282.81	2185.49	1031.93	729.54	416.06	533.88	823.66	316.08	2694.38	2220.41	2439.9	2336.28	2838.05	2472.38	2883.34	635.3	152.69	1842.49	1848.54	2339.52	420.63	1060.99	619.11	951.72	641.8	742.76	2987.37	582.81	2373.01	746.02	854.43	2794.37	985.08	550.44	1084.72	1040.4	2985.87	2431.05	1575.45	3226.46	2736.28	364.18	1338.21	2883.25	528.64	1880.95	3102.53	1306.57	993.68	1313.67	1914.96	1168.72	939.05	1070.94	737.01	1347.41	802.71	1148.1	2865.76	2283.59	1077.87	1507.39	1362.65	576.69	914.93	1162.76	441.29	903.44	880.31	1302.18	801.45	822.99	2236.13	2692.91	1168.63	674.31	1326.92	2506.23	2003.6	1055.07	825.5	502.67	1568.41	1729.05	1635.65		933.33	2897.95	862.52	918.42	240.68	2761.15	885.82	357.41	767.01	1121.0	
792.12	3325.89	359.3	2600.03	1763.94	2820.16	1878.97	275.36	1286.4	1023.54	400.28	895.68	3509.74	2986.86	3076.59	3176.81	3701.45	3355.55	3785.72	1526.85	970.82	2772.55	2780.0	3231.23	1303.2	1774.88	1338.24	64.4	369.42	1568.45	3750.37	538.27	3053.52	1585.85	1356.07	3673.88	1918.25	1447.21	1352.82	1423.38	3855.45	3212.3	2409.11	4126.56	3611.08	1260.87	2238.02	3636.16	1317.15	2740.76	3779.3	2181.03	1128.77	2218.79	2821.21	1916.32	1705.87	1935.34	475.84	2085.55	1379.06	1781.7	3648.28	3026.95	1981.16	2085.83	1718.44	1150.31	1621.24	1357.99	1078.52	1836.21	788.81	2007.07	1622.35	354.87	3110.4	3531.98	2037.92	1559.89	2175.12	3238.19	2700.41	1906.92	706.28	1295.18	2270.14	2659.19	2420.69	933.33		3794.86	438.32	1616.5	696.25	3656.87	199.62	708.46	268.36	1856.17	
3020.11	830.72	3562.09	1805.66	3251.06	1754.33	1924.8	3541.53	2510.24	3158.4	3716.92	2905.16	766.55	1207.76	1711.08	779.63	366.29	458.7	73.78	2493.66	2925.01	1170.08	1191.33	564.65	2495.48	2776.22	2489.17	3826.2	3441.81	2607.29	1105.99	3298.81	1537.72	2213.04	2622.79	228.4	2000.01	2537.48	3491.77	3342.58	315.63	1047.13	1437.04	333.22	299.54	2542.86	2028.85	1150.63	2781.58	1087.62	1602.36	1615.94	3582.67	1584.27	985.15	2673.88	2139.77	1862.41	3429.1	1860.76	2546.12	2946.7	970.3	1285.82	2158.32	2148.97	3475.59	3070.68	2817.35	3600.69	2739.12	2042.4	3667.55	1970.12	2592.49	3563.11	711.77	600.26	2267.72	2485.56	2294.76	1279.37	1584.94	1895.3	3645.19	2786.33	1799.9	1267.28	1517.46	2897.95	3794.86		3751.41	2271.84	3114.31	138.31	3687.59	3090.7	3567.33	2714.73	
765.21	3370.41	241.92	2752.56	1368.35	2976.37	1891.68	568.56	1274.08	715.55	53.85	974.92	3553.63	3066.29	3233.97	3198.22	3700.06	3331.63	3733.87	1333.27	827.67	2661.85	2662.02	3196.46	1281.5	1454.47	1417.04	389.34	608.0	1320.97	3834.91	762.72	3186.87	1601.48	1533.01	3654.0	1787.54	1265.32	934.02	1022.94	3847.1	3282.11	2435.25	4077.55	3596.93	1226.44	2020.28	3727.39	1075.55	2743.47	3918.79	2168.98	702.05	2169.11	2766.43	1603.64	1772.04	1933.07	785.53	2175.67	1526.38	1429.62	3718.37	3122.05	1776.31	2258.59	1299.65	843.54	1307.86	928.62	1171.28	1723.86	356.28	2114.98	1367.59	714.36	3097.45	3554.98	1795.58	1358.12	1910.72	3341.71	2821.68	1915.72	280.4	1058.91	2383.93	2549.26	2484.0	862.52	438.32	3751.41		1718.31	684.07	3615.48	600.35	811.37	593.32	1540.73	
965.55	1716.61	1485.09	1045.54	2031.31	1268.97	424.7	1343.82	547.27	1419.4	1670.43	746.08	1899.72	1370.43	1524.78	1585.45	2124.32	1815.42	2276.78	1074.04	1038.01	1475.89	1504.14	1713.44	562.41	1650.35	303.78	1661.61	1247.2	1277.23	2135.4	1083.01	1468.96	331.85	359.46	2119.42	951.47	1027.0	1954.33	1874.83	2283.56	1596.0	836.26	2604.02	2050.54	620.66	1463.24	2022.85	1219.84	1184.92	2200.91	712.98	1899.37	848.14	1370.35	1687.04	158.4	506.4	1190.65	469.05	274.43	1802.37	2031.79	1413.85	1266.05	602.55	2169.68	1418.09	1552.99	2044.99	550.01	849.45	1795.44	397.13	1319.65	1329.74	1562.34	1934.61	1447.2	1108.31	1619.63	1629.34	1103.42	454.07	1735.11	1202.28	665.82	1378.49	809.86	918.42	1616.5	2271.84	1718.31		1036.56	2134.56	1472.32	924.35	1360.49	1668.21	
95.96	2693.57	460.05	2076.69	1394.37	2300.66	1219.8	489.88	606.88	594.42	638.25	305.1	2877.23	2383.06	2557.74	2528.04	3040.07	2682.22	3102.19	866.97	322.94	2076.43	2083.75	2552.98	619.5	1240.8	733.97	718.42	405.12	953.65	3151.72	374.83	2505.49	926.46	887.72	3003.03	1224.28	783.03	1120.88	1110.58	3190.61	2600.17	1761.38	3444.48	2942.88	571.64	1574.81	3043.67	718.98	2079.42	3237.42	1509.48	981.79	1532.01	2134.85	1361.22	1088.22	1267.57	521.11	1491.65	863.25	1303.99	3036.82	2438.01	1314.72	1593.87	1438.56	679.76	1088.55	1181.26	496.07	1140.38	788.14	1432.38	1011.75	591.8	2441.72	2884.94	1397.25	904.43	1550.63	2657.65	2139.18	1245.47	716.84	693.47	1701.35	1963.04	1801.84	240.68	696.25	3114.31	684.07	1036.56		2976.87	645.81	204.6	528.08	1308.82	
2882.76	742.24	3425.21	1692.03	3133.91	1651.61	1786.49	3403.31	2372.5	3026.49	3580.71	2766.94	705.03	1100.43	1623.54	663.45	341.34	324.6	152.32	2363.1	2789.48	1050.34	1074.21	426.35	2357.89	2656.96	2350.92	3688.36	3303.59	2480.14	1079.64	3160.51	1446.12	2074.79	2486.12	181.73	1868.91	2405.61	3366.59	3218.47	355.29	955.32	1300.35	471.48	227.69	2405.52	1913.66	1109.83	2650.94	950.95	1568.51	1477.69	3454.0	1447.54	849.99	2557.72	2001.92	1724.15	3290.81	1726.31	2408.9	2828.93	932.47	1185.35	2035.27	2021.5	3357.41	2940.13	2694.43	3475.59	2600.81	1909.22	3534.67	1836.08	2466.59	3424.8	576.35	535.46	2149.58	2355.8	2182.58	1197.77	1470.98	1756.99	3511.44	2655.27	1670.69	1144.04	1384.93	2761.15	3656.87	138.31	3615.48	2134.56	2976.87		3549.32	2952.53	3429.07	2597.18	
737.11	3188.22	450.57	2431.72	1857.07	2650.01	1763.83	156.54	1194.81	1080.93	554.1	783.76	3371.61	2838.97	2905.32	3047.84	3578.63	3242.52	3681.77	1508.85	953.47	2698.45	2709.03	3122.98	1215.0	1817.73	1208.13	263.84	251.47	1575.93	3598.28	391.86	2888.93	1474.65	1190.76	3558.01	1862.66	1425.91	1471.24	1524.75	3734.66	3066.61	2283.13	4020.36	3493.31	1179.65	2219.1	3482.3	1328.96	2621.02	3611.16	2071.71	1258.69	2124.11	2723.3	1952.55	1573.13	1825.24	294.01	1939.8	1223.13	1843.81	3501.04	2873.9	1959.37	1914.51	1833.07	1201.42	1662.77	1488.37	951.38	1773.83	932.01	1856.11	1632.3	160.82	2994.39	3401.01	2034.09	1544.97	2181.07	3081.77	2540.73	1792.88	845.6	1305.13	2115.17	2585.65	2281.37	885.82	199.62	3687.59	600.35	1472.32	645.81	3549.32		601.61	122.44	1894.88	
229.48	2621.39	571.11	1944.94	1592.38	2168.38	1171.03	451.37	593.62	796.84	760.38	187.22	2805.35	2291.44	2426.12	2468.99	2993.0	2648.84	3083.38	985.05	486.37	2099.57	2111.35	2526.42	614.59	1412.03	634.43	746.73	351.92	1100.17	3058.35	238.25	2385.63	878.68	722.93	2966.4	1278.46	899.98	1325.4	1314.06	3147.14	2514.08	1701.0	3423.03	2903.18	582.68	1675.28	2946.71	881.51	2032.43	3116.68	1475.19	1182.49	1522.73	2122.69	1524.09	1001.57	1228.97	393.42	1391.18	715.79	1487.69	2950.9	2337.97	1415.64	1447.38	1642.0	876.23	1262.91	1384.83	375.83	1184.57	969.07	1320.61	1158.86	501.08	2402.77	2824.55	1518.67	1025.27	1680.22	2553.64	2024.13	1199.24	892.15	855.53	1588.09	1987.11	1718.64	357.41	708.46	3090.7	811.37	924.35	204.6	2952.53	601.61		479.55	1474.99	
617.82	3074.83	403.11	2333.33	1782.8	2553.0	1644.28	41.77	1072.5	993.99	542.26	662.62	3258.4	2729.35	2809.19	2931.82	3461.19	3123.08	3561.07	1393.77	840.79	2576.02	2586.65	3002.77	1092.6	1720.26	1091.36	325.55	129.07	1467.22	3490.69	277.48	2788.09	1354.29	1089.77	3439.13	1741.29	1310.31	1414.3	1456.84	3616.8	2956.13	2166.1	3899.98	3374.78	1057.23	2102.78	3375.54	1222.5	2502.7	3512.8	1951.38	1211.47	2002.25	2601.81	1852.2	1457.49	1704.92	211.38	1828.94	1116.46	1754.23	3391.28	2766.62	1842.75	1818.28	1771.63	1110.51	1565.32	1439.55	833.4	1651.98	899.35	1747.47	1524.15	122.8	2875.44	3285.61	1921.36	1430.51	2070.65	2976.23	2436.85	1673.16	811.7	1198.2	2008.61	2463.23	2168.26	767.01	268.36	3567.33	593.32	1360.49	528.08	3429.07	122.44	479.55		1795.6	
1248.57	2661.17	1498.97	2531.82	536.81	2725.66	1457.35	1753.92	1189.84	836.3	1539.9	1418.34	2819.33	2524.45	2945.2	2434.33	2800.04	2399.08	2673.23	598.9	990.69	1546.99	1523.56	2245.86	1162.88	88.39	1479.62	1842.46	1691.11	406.73	3209.1	1683.2	2817.74	1342.66	1810.63	2699.39	890.45	661.29	848.25	688.1	2911.22	2672.59	1844.43	2999.91	2666.24	1125.79	688.57	3136.39	593.49	1995.35	3479.58	1529.34	1021.5	1395.35	1817.44	63.7	1578.58	1426.75	1829.14	1890.82	1720.34	232.02	3054.95	2626.32	590.81	2233.19	761.04	707.53	235.26	949.32	1463.2	936.11	1267.54	1912.88	355.05	1884.44	2232.8	2750.26	447.79	561.79	450.69	2842.39	2474.25	1456.25	1298.44	619.47	2115.66	1458.3	2010.39	1121.0	1856.17	2714.73	1540.73	1668.21	1308.82	2597.18	1894.88	1474.99	1795.6		
