n: 100
deposito: 9
clusters: 20
factor: 1

xcoord[n]:
3477.0
91.0
3972.0
198.0
1806.0
538.0
3430.0
2186.0
1513.0
2143.0
53.0
3404.0
1034.0
2823.0
3104.0
3232.0
2790.0
374.0
741.0
3083.0
3502.0
1280.0
3326.0
217.0
2503.0
3527.0
739.0
3548.0
48.0
1419.0
1689.0
3468.0
1628.0
382.0
3029.0
3646.0
285.0
1782.0
1067.0
2849.0
920.0
1741.0
876.0
2753.0
2609.0
3941.0
3613.0
1754.0
2916.0
2445.0
3825.0
2779.0
201.0
2502.0
765.0
3105.0
1937.0
3364.0
3702.0
2164.0
3019.0
3098.0
3239.0
3359.0
2081.0
1398.0
618.0
1878.0
3803.0
397.0
3035.0
2502.0
3230.0
3479.0
958.0
3423.0
78.0
96.0
3431.0
2053.0
3048.0
571.0
3393.0
2835.0
144.0
923.0
989.0
3061.0
2977.0
1668.0
878.0
678.0
1086.0
640.0
3551.0
106.0
2243.0
3796.0
2643.0
48.0

ycoord[n]:
949.0
1732.0
329.0
1632.0
733.0
1023.0
1088.0
766.0
1646.0
1611.0
1657.0
1307.0
1344.0
376.0
1931.0
324.0
1457.0
9.0
146.0
1938.0
1067.0
237.0
1846.0
38.0
1172.0
41.0
1850.0
1999.0
154.0
872.0
1223.0
1404.0
253.0
872.0
1242.0
1758.0
1029.0
93.0
371.0
1214.0
1835.0
712.0
220.0
283.0
1286.0
258.0
523.0
559.0
1724.0
1820.0
1101.0
435.0
693.0
1274.0
833.0
1823.0
1400.0
1498.0
1624.0
1874.0
189.0
1594.0
1376.0
1693.0
1011.0
1100.0
1953.0
59.0
886.0
1217.0
152.0
146.0
380.0
1023.0
1670.0
1241.0
1066.0
691.0
78.0
1461.0
1.0
1711.0
782.0
1472.0
1185.0
108.0
1997.0
1211.0
39.0
658.0
715.0
1599.0
868.0
110.0
1673.0
1267.0
1332.0
1401.0
1320.0
267.0

color[n]:
#3d9d0a
#f49330
#6b47c7
#f49330
#d02c76
#11cf74
#60c2b7
#fc896c
#1e97c1
#3d427d
#f49330
#60c2b7
#84c49f
#a809a8
#e69257
#1b5ab1
#e69257
#536f16
#536f16
#e69257
#3d9d0a
#7981a5
#9bab3e
#31c7b4
#fc896c
#1b5ab1
#a226fd
#9bab3e
#31c7b4
#84c49f
#84c49f
#60c2b7
#58ac50
#99488
#60c2b7
#9bab3e
#f49330
#58ac50
#7981a5
#60c2b7
#a226fd
#d02c76
#536f16
#a809a8
#60c2b7
#6b47c7
#6b47c7
#d02c76
#e69257
#3d427d
#3d9d0a
#a809a8
#99488
#3d427d
#11cf74
#e69257
#3d427d
#60c2b7
#9bab3e
#3d427d
#1b5ab1
#e69257
#60c2b7
#9bab3e
#fc896c
#84c49f
#a226fd
#58ac50
#3d9d0a
#f49330
#1b5ab1
#a809a8
#1b5ab1
#3d9d0a
#a226fd
#60c2b7
#f49330
#99488
#1b5ab1
#3d427d
#1b5ab1
#a226fd
#1b5ab1
#e69257
#f49330
#536f16
#a226fd
#60c2b7
#1b5ab1
#d02c76
#11cf74
#a226fd
#11cf74
#536f16
#9bab3e
#f49330
#3d427d
#3d9d0a
#60c2b7
#31c7b4

Np[1]: 24 29 100  ;
Np[2]: 23 28 36 59 64 95  ;
Np[3]: 14 44 52 72  ;
Np[4]: 27 41 67 75 82 87 92  ;
Np[5]: 3 46 47  ;
Np[6]: 22 39  ;
Np[7]: 10 50 54 57 60 80 97  ;
Np[8]: 2 4 11 37 70 77 85 96  ;
Np[9]: 7 12 32 35 40 45 58 63 76 88 99  ;
Np[10]: 13 30 31 66  ;
Np[11]: 1 21 51 69 74 98  ;
Np[12]: 16 26 61 71 73 79 81 83 89  ;
Np[13]: 8 25 65  ;
Np[14]: 6 55 91 93  ;
Np[15]: 33 38 68  ;
Np[16]: 18 19 43 86 94  ;
Np[17]: 34 53 78  ;
Np[18]: 9  ;
Np[19]: 15 17 20 49 56 62 84  ;
Np[20]: 5 42 48 90  ;


c[n,n]:
	3475.35	793.36	3349.38	1684.9	2939.93	146.73	1303.91	2084.01	1489.23	3496.43	365.37	2474.73	869.51	1050.45	671.3	854.42	3242.25	2851.4	1064.59	120.62	2309.49	909.62	3384.9	999.2	909.38	2882.44	1052.4	3519.95	2059.44	1808.87	455.09	1975.66	3095.96	535.31	826.46	3193.0	1898.88	2478.34	681.62	2706.15	1752.1	2701.23	983.73	931.12	832.33	447.18	1766.59	956.74	1350.43	379.75	866.83	3285.99	1027.74	2714.48	949.87	1604.68	560.51	711.51	1606.11	887.34	748.11	488.85	753.3	1397.38	2084.48	3030.16	1830.0	332.03	3091.64	911.36	1263.1	620.3	74.03	2620.15	296.95	3401.01	3390.83	872.21	1513.25	1040.55	3004.24	186.94	828.07	3341.34	2688.9	2699.71	491.63	1038.32	1832.26	2609.51	2873.48	2392.37	2958.46	727.77	3385.97	1292.07	553.23	912.8	3496.16	
3475.35		4126.81	146.45	1984.75	838.15	3400.54	2306.99	1424.6	2055.56	84.08	3340.15	1019.7	3050.01	3019.56	3442.14	2712.97	1746.09	1714.03	2999.08	3475.22	1910.17	3237.01	1698.68	2476.16	3829.57	658.66	3467.3	1578.59	1582.15	1677.11	3392.89	2133.03	907.9	2978.58	3555.1	729.28	2354.95	1674.78	2806.22	835.37	1939.82	1703.63	3030.82	2557.19	4122.52	3723.73	2035.07	2825.01	2355.64	3786.94	2984.55	1044.81	2454.12	1123.6	3015.37	1875.62	3281.35	3612.61	2077.86	3309.69	3010.16	3168.07	3268.23	2116.59	1451.78	571.46	2447.92	3807.19	599.05	3341.19	2885.88	3417.78	3461.39	869.21	3367.98	666.13	1041.01	3727.11	1980.63	3426.4	480.46	3435.94	2756.29	549.56	1824.72	936.28	3015.35	3345.93	1907.98	1285.95	601.88	1317.77	1712.39	3460.5	465.24	2188.86	3719.76	2585.04	1465.63	
793.36	4126.81		3992.6	2203.35	3503.43	932.65	1838.69	2789.47	2233.55	4137.89	1130.98	3108.39	1149.96	1822.04	740.02	1633.86	3612.2	3236.18	1838.26	874.95	2693.57	1648.82	3766.26	1693.7	530.07	3572.92	1722.98	3927.9	2610.11	2451.8	1187.28	2345.23	3630.83	1312.56	1465.71	3752.86	2202.68	2905.3	1429.81	3403.34	2263.64	3097.92	1219.87	1665.42	77.47	408.06	2229.89	1749.62	2134.2	785.87	1197.7	3788.53	1747.55	3246.36	1727.35	2299.62	1317.66	1322.85	2378.21	963.23	1537.56	1278.08	1495.41	2010.23	2686.99	3726.49	2111.34	582.07	3683.64	953.57	1481.35	743.75	851.28	3298.86	1064.49	3963.13	3892.87	596.39	2228.0	980.49	3671.07	735.15	1612.21	3922.54	3057.0	3417.68	1268.01	1036.4	2327.37	3117.99	3530.35	2935.9	3339.19	1408.4	3978.17	1998.86	1086.35	1657.81	3924.49	
3349.38	146.45	3992.6		1842.24	697.48	3277.46	2168.43	1315.07	1945.11	147.14	3222.43	884.22	2910.01	2921.34	3303.94	2597.9	1632.51	1582.1	2901.18	3351.96	1765.43	3135.31	1594.11	2350.45	3689.65	583.27	3370.04	1485.59	1438.21	1546.08	3277.94	1986.59	781.96	2857.74	3450.3	609.24	2208.52	1531.43	2683.75	750.0	1796.45	1566.34	2889.26	2435.7	3987.22	3590.56	1890.1	2719.56	2254.85	3665.66	2845.06	939.0	2331.65	979.74	2913.27	1754.41	3168.83	3504.01	1980.84	3168.64	2900.25	3051.76	3161.59	1982.76	1312.64	528.62	2301.46	3681.38	460.25	3199.84	2741.64	3280.32	3337.04	760.95	3248.62	578.58	946.51	3587.09	1862.86	3283.7	381.27	3306.13	2641.85	450.25	1687.66	871.15	2893.79	3203.2	1763.4	1141.62	481.13	1171.43	1584.88	3353.25	376.42	2066.89	3605.41	2464.83	1373.22	
1684.9	1984.75	2203.35	1842.24		1300.74	1662.35	381.43	958.86	940.45	1981.61	1697.96	984.53	1077.84	1766.35	1483.49	1221.65	1604.62	1216.06	1755.78	1728.58	722.97	1883.92	1734.34	823.73	1854.91	1544.73	2153.44	1850.89	411.21	503.77	1792.34	511.94	1430.77	1324.69	2106.23	1549.53	640.45	822.9	1148.57	1414.0	68.31	1062.11	1048.48	975.0	2187.2	1819.16	181.6	1488.01	1260.91	2052.26	1017.61	1605.5	881.53	1045.79	1695.73	679.74	1735.68	2094.92	1195.84	1329.4	1552.61	1570.65	1825.76	391.04	548.77	1702.86	677.83	2002.85	1489.81	1359.41	910.49	1467.1	1697.95	1263.75	1694.92	1759.79	1710.52	1752.04	768.76	1441.66	1575.34	1587.76	1266.87	1722.37	1081.81	1505.05	1342.95	1361.2	157.06	928.17	1422.09	732.55	1322.0	1982.08	1781.9	741.46	2099.12	1022.32	1818.71	
2939.93	838.15	3503.43	697.48	1300.74		2892.73	1667.92	1157.05	1709.32	798.24	2880.04	590.81	2374.83	2721.91	2783.21	2293.44	1027.18	900.19	2704.49	2964.33	1080.91	2906.94	1035.99	1970.64	3146.18	851.08	3164.28	997.63	893.85	1168.25	2954.67	1334.54	217.11	2500.61	3193.73	253.07	1553.2	839.61	2318.88	897.37	1242.55	871.24	2335.34	2087.63	3487.93	3115.39	1301.52	2479.17	2066.85	3287.93	2316.86	471.67	1979.97	296.02	2688.77	1448.91	2865.64	3220.57	1835.23	2617.43	2622.91	2723.97	2899.47	1543.05	863.44	933.43	1650.73	3267.87	239.83	2644.55	2150.91	2767.73	2941.0	771.37	2893.22	462.01	552.8	3043.43	1577.04	2710.09	688.79	2865.15	2340.47	426.0	992.7	1073.35	2529.99	2630.01	1187.49	458.76	592.77	569.5	918.68	3082.32	496.15	1732.77	3279.85	2125.85	900.91	
146.73	3400.54	932.65	3277.46	1662.35	2892.73		1285.0	1996.56	1389.21	3424.6	220.54	2409.64	935.62	903.84	789.24	738.76	3240.89	2849.23	918.1	75.0	2312.29	765.1	3380.22	930.8	1051.48	2796.81	918.61	3508.6	2022.57	1746.23	318.28	1986.06	3055.64	429.55	703.96	3145.55	1925.08	2469.38	594.51	2618.8	1730.35	2697.47	1051.83	844.54	974.69	593.9	1757.5	817.74	1227.21	395.21	922.07	3253.07	946.46	2677.17	803.65	1525.25	415.28	601.07	1490.15	988.49	605.19	345.58	609.15	1351.2	2032.04	2942.03	1862.13	424.19	3035.74	1015.93	1322.33	735.71	81.4	2539.59	153.16	3352.07	3357.55	1010.0	1426.62	1152.17	2926.09	308.23	708.15	3287.43	2691.74	2604.76	388.96	1142.63	1813.71	2579.11	2799.04	2354.3	2956.45	597.38	3328.82	1211.82	481.59	820.48	3480.22	
1303.91	2306.99	1838.69	2168.43	381.43	1667.92	1285.0		1107.85	846.09	2311.62	1332.74	1288.87	746.91	1483.22	1135.55	917.77	1963.77	1572.39	1475.87	1349.98	1049.13	1570.35	2099.27	515.1	1524.44	1808.0	1837.21	2223.87	774.29	675.17	1431.98	757.98	1807.11	968.1	1765.12	1919.11	784.95	1186.67	800.17	1656.96	448.26	1419.23	744.83	670.32	1827.04	1447.54	479.03	1204.44	1085.36	1672.89	679.12	1986.34	598.26	1422.58	1400.65	681.14	1386.91	1741.96	1108.22	1013.32	1231.8	1216.93	1495.08	266.55	855.86	1966.62	771.18	1621.45	1844.97	1047.76	695.89	1113.07	1318.29	1524.86	1325.06	2129.24	2091.35	1422.45	707.61	1152.51	1871.16	1207.11	958.98	2084.54	1424.13	1717.02	981.66	1074.34	529.14	1308.99	1722.77	1104.72	1679.42	1638.86	2139.49	568.86	1730.7	718.17	2195.46	
2084.01	1424.6	2789.47	1315.07	958.86	1157.05	1996.56	1107.85		630.97	1460.04	1921.15	566.26	1824.55	1616.32	2168.56	1290.91	1994.26	1687.0	1596.92	2071.56	1428.14	1824.0	2065.26	1097.62	2575.31	800.43	2065.39	2091.0	779.69	458.15	1969.92	1397.74	1370.49	1568.91	2135.94	1374.29	1576.12	1350.76	1404.11	622.39	961.43	1561.81	1842.65	1153.61	2796.74	2381.41	1113.4	1405.17	948.1	2375.37	1751.94	1621.59	1056.65	1104.75	1601.81	490.2	1856.91	2189.11	689.77	2095.44	1585.85	1746.99	1846.6	851.97	557.98	946.19	1628.43	2412.82	1195.62	2132.73	1796.7	2133.27	2062.35	555.52	1952.47	1547.78	1708.78	2477.37	570.81	2249.94	944.24	2069.03	1333.4	1444.54	1647.28	630.7	1607.96	2173.88	1000.08	1126.94	836.32	887.48	1766.76	2038.18	1457.15	794.67	2296.11	1176.09	2011.93	
1489.23	2055.56	2233.55	1945.11	940.45	1709.32	1389.21	846.09	630.97		2090.51	1297.13	1140.69	1409.83	1012.88	1685.91	665.08	2386.58	2027.76	995.25	1463.84	1622.54	1206.12	2486.73	567.73	2092.93	1424.2	1457.59	2551.84	1034.55	597.21	1341.07	1452.37	1909.78	959.77	1510.17	1947.02	1560.33	1641.76	809.97	1243.34	984.79	1881.53	1461.4	568.14	2250.2	1828.84	1121.62	781.22	367.27	1757.62	1336.96	2148.04	492.39	1582.46	985.08	294.88	1226.22	1559.05	263.84	1670.17	955.15	1120.91	1218.76	603.19	903.41	1562.88	1574.46	1811.42	1789.9	1710.07	1508.35	1642.23	1459.67	1186.47	1332.4	2135.71	2244.24	2002.26	174.93	1846.92	1575.18	1499.91	705.82	2043.89	1935.82	1216.85	1001.36	1779.53	1064.82	1550.17	1465.05	1292.01	2124.15	1409.36	2065.84	296.38	1666.29	578.52	2489.05	
3496.43	84.08	4137.89	147.14	1981.61	798.24	3424.6	2311.62	1460.04	2090.51		3369.23	1029.72	3051.86	3063.28	3447.16	2744.3	1678.97	1660.26	3043.0	3499.1	1876.68	3278.45	1627.29	2497.54	3831.47	712.63	3511.69	1503.01	1575.49	1692.59	3424.36	2109.94	851.16	3004.8	3594.42	669.48	2331.42	1637.68	2830.88	885.08	1934.52	1655.99	3029.5	2582.78	4132.04	3736.25	2024.6	2863.78	2397.55	3812.76	2987.37	975.29	2478.77	1089.0	3056.51	1901.45	3314.82	3649.15	2122.12	3309.41	3045.65	3198.37	3306.2	2128.4	1455.77	637.84	2425.74	3828.44	558.51	3340.26	2877.62	3424.04	3484.17	905.09	3395.58	591.53	966.96	3728.82	2009.58	3422.33	520.81	3452.71	2788.14	480.69	1776.6	995.84	3040.88	3341.81	1899.01	1252.19	627.69	1299.85	1654.62	3498.04	393.58	2213.98	3751.74	2611.83	1390.01	
365.37	3340.15	1130.98	3222.43	1697.96	2880.04	220.54	1332.74	1921.15	1297.13	3369.23		2370.29	1097.42	692.37	997.93	632.06	3296.32	2905.08	707.96	259.24	2378.29	544.61	3430.35	911.06	1271.96	2719.76	706.82	3548.54	2032.1	1717.06	116.21	2065.21	3053.15	380.59	511.83	3131.36	2026.0	2517.47	562.74	2539.5	1766.24	2751.79	1213.42	795.28	1178.46	811.38	1811.63	641.9	1087.59	468.7	1072.85	3261.32	902.6	2681.23	596.37	1469.94	195.14	435.08	1363.48	1182.43	419.53	178.85	388.61	1355.71	2016.65	2859.91	1971.34	580.04	3008.35	1212.51	1470.21	943.19	293.74	2472.79	68.68	3334.72	3364.87	1229.3	1359.75	1353.65	2861.66	525.12	592.44	3262.28	2755.53	2511.64	356.18	1337.97	1853.35	2594.44	2741.59	2359.2	3012.06	394.42	3298.24	1161.27	403.11	761.11	3513.45	
2474.73	1019.7	3108.39	884.22	984.53	590.81	2409.64	1288.87	566.26	1140.69	1029.72	2370.29		2034.1	2151.62	2423.14	1759.63	1489.24	1233.31	2133.36	2483.5	1134.0	2346.33	1540.5	1479.04	2812.98	585.71	2597.93	1545.41	609.11	666.08	2434.74	1242.22	804.91	1997.61	2644.61	812.54	1457.57	973.56	1819.65	504.06	948.3	1135.05	2020.07	1576.07	3103.23	2706.53	1065.19	1919.98	1489.13	2801.56	1967.56	1057.21	1469.67	577.48	2125.67	904.73	2335.08	2682.65	1248.12	2296.57	2079.09	2205.23	2351.05	1098.68	438.21	737.52	1537.39	2806.62	649.54	2329.13	1894.79	2398.27	2465.98	334.74	2391.22	995.6	1142.91	2710.79	1025.69	2420.71	590.81	2425.02	1805.54	904.09	1240.97	654.55	2031.36	2340.57	934.1	648.06	437.91	478.83	1295.37	2538.41	931.19	1209.06	2762.59	1609.18	1460.18	
869.51	3050.01	1149.96	2910.01	1077.84	2374.83	935.62	746.91	1824.55	1409.83	3051.86	1097.42	2034.1		1580.19	412.29	1081.5	2476.35	2094.67	1583.49	968.77	1549.25	1553.68	2627.83	857.91	779.64	2552.59	1777.57	2783.87	1489.04	1415.4	1213.59	1201.31	2490.88	890.16	1608.49	2620.66	1078.78	1756.01	838.4	2397.93	1132.97	1953.24	116.4	934.82	1124.21	803.56	1084.55	1351.2	1492.66	1236.78	73.6	2641.09	953.65	2108.13	1474.22	1354.09	1245.62	1526.48	1636.55	270.9	1248.66	1083.08	1421.89	976.62	1598.37	2710.9	996.75	1104.76	2567.64	308.42	394.89	407.02	921.38	2269.95	1052.72	2830.39	2745.13	677.1	1330.46	437.32	2617.96	699.81	1096.07	2798.49	1918.81	2447.69	868.26	370.52	1188.93	1974.32	2469.16	1805.33	2199.15	1487.34	2859.37	1118.18	1413.28	961.01	2777.14	
1050.45	3019.56	1822.04	2921.34	1766.35	2721.91	903.84	1483.22	1616.32	1012.88	3063.28	692.37	2151.62	1580.19		1612.09	568.57	3338.71	2961.42	22.14	951.26	2489.3	237.72	3452.28	968.13	1936.76	2366.39	449.18	3535.09	1990.15	1582.24	640.49	2234.78	2920.75	693.07	568.94	2959.79	2264.05	2565.73	761.0	2186.11	1828.59	2809.18	1684.96	813.05	1870.69	1497.18	1924.81	279.63	668.28	1099.43	1530.9	3155.96	891.1	2583.9	108.0	1282.13	505.06	672.2	941.73	1744.07	337.05	571.18	348.81	1375.84	1897.63	2486.1	2237.74	1257.23	2799.58	1780.34	1883.78	1556.11	982.39	2161.81	760.17	3147.21	3253.56	1881.63	1151.3	1930.81	2542.54	1184.79	532.02	3052.56	2842.55	2116.03	721.28	1896.26	1919.02	2536.48	2448.61	2280.85	3063.88	516.11	3070.65	1048.87	871.64	765.4	3479.66	
671.3	3442.14	740.02	3303.94	1483.49	2783.21	789.24	1135.55	2168.56	1685.91	3447.16	997.93	2423.14	412.29	1612.09		1216.16	2875.31	2497.35	1620.86	790.54	1953.94	1524.9	3028.53	1118.28	408.8	2922.97	1704.55	3188.54	1894.01	1785.79	1105.48	1605.57	2902.21	940.18	1492.57	3030.15	1468.29	2165.51	968.91	2761.97	1540.66	2358.29	480.75	1146.11	712.07	429.84	1496.57	1435.22	1690.38	977.43	466.4	3053.38	1198.08	2518.96	1504.37	1683.69	1181.4	1382.35	1882.32	252.18	1277.05	1052.02	1374.88	1340.44	1991.41	3080.04	1379.69	801.18	2972.32	261.52	751.39	56.04	741.36	2642.5	936.68	3240.1	3157.4	316.41	1637.93	371.73	3000.78	485.47	1214.71	3205.79	2319.08	2798.21	903.33	382.43	1599.27	2386.25	2854.56	2213.88	2600.82	1386.2	3265.14	1412.16	1215.74	1157.12	3184.51	
854.42	2712.97	1633.86	2597.9	1221.65	2293.44	738.76	917.77	1290.91	665.08	2744.3	632.06	1759.63	1081.5	568.57	1216.16		2816.69	2432.51	563.21	811.82	1941.26	662.28	2938.35	404.47	1596.32	2088.31	931.84	3035.85	1490.59	1125.59	680.07	1673.28	2478.04	321.47	907.38	2541.3	1696.04	2036.69	250.06	1907.82	1286.63	2278.94	1174.58	249.0	1662.05	1244.86	1371.02	295.24	500.79	1094.51	1022.06	2699.37	341.22	2118.96	482.89	854.9	575.46	927.16	752.17	1288.51	337.09	456.25	616.0	837.61	1437.05	2227.91	1669.18	1162.85	2405.0	1327.8	1342.26	1163.41	814.3	1844.34	668.84	2740.04	2800.78	1520.7	737.01	1478.68	2233.49	905.12	47.43	2659.94	2303.36	1880.21	366.0	1430.28	1377.42	2050.93	2116.77	1802.92	2537.11	791.06	2690.72	561.1	1007.56	200.94	2989.09	
3242.25	1746.09	3612.2	1632.51	1604.62	1027.18	3240.89	1963.77	1994.26	2386.58	1678.97	3296.32	1489.24	2476.35	3338.71	2875.31	2816.69		391.74	3325.62	3302.08	934.25	3476.91	159.66	2425.95	3153.16	1876.83	3746.25	356.79	1355.28	1789.7	3393.94	1277.52	863.04	2927.34	3710.12	1023.88	1410.5	781.85	2752.75	1905.88	1537.17	544.54	2394.73	2574.09	3575.68	3279.53	1485.56	3066.43	2751.14	3619.65	2442.44	705.54	2475.6	912.06	3278.56	2092.33	3340.24	3699.16	2585.02	2651.12	3151.57	3174.42	3427.26	1979.36	1496.28	1959.25	1504.83	3539.37	1208.22	2664.84	2132.41	2880.0	3266.38	1760.68	3288.5	1097.66	736.48	3057.78	2219.76	2674.01	1713.36	3116.39	2863.02	1198.28	557.85	2080.95	2943.6	2603.17	1447.63	867.44	1618.8	1115.72	284.53	3586.39	1286.23	2289.87	3694.29	2620.51	415.74	
2851.4	1714.03	3236.18	1582.1	1216.06	900.19	2849.23	1572.39	1687.0	2027.76	1660.26	2905.08	1233.31	2094.67	2961.42	2497.35	2432.51	391.74		2948.94	2910.56	546.63	3093.9	535.01	2038.95	2787.98	1704.0	3363.46	693.05	993.36	1434.79	3003.18	893.43	809.91	2536.96	3322.28	993.79	1042.35	396.11	2363.11	1698.46	1149.07	153.95	2016.66	2188.38	3201.96	2896.64	1093.96	2687.14	2388.7	3228.48	2058.39	768.64	2091.29	687.42	2898.42	1732.9	2950.94	3309.38	2238.51	2278.41	2766.25	2784.4	3040.91	1594.94	1158.35	1811.18	1140.32	3150.15	1124.89	2294.01	1761.0	2499.98	2875.03	1539.37	2896.92	1134.01	844.42	2690.86	1857.57	2311.55	1574.21	2727.2	2478.53	1198.3	185.92	1867.54	2552.77	2238.56	1059.0	585.26	1454.37	800.19	107.22	3198.1	1288.36	1913.79	3302.73	2235.15	703.48	
1064.59	2999.08	1838.26	2901.18	1755.78	2704.49	918.1	1475.87	1596.92	995.25	3043.0	707.96	2133.36	1583.49	22.14	1620.86	563.21	3325.62	2948.94		966.54	2478.75	259.83	3438.6	960.81	1948.27	2345.65	468.98	3520.49	1976.17	1566.67	658.32	2226.26	2903.75	698.09	591.07	2941.95	2257.57	2553.38	760.88	2165.45	1817.7	2796.85	1687.58	806.09	1886.42	1511.0	1915.17	271.45	648.82	1118.54	1533.44	3139.42	882.3	2567.91	117.09	1266.0	522.07	694.09	921.23	1750.17	344.33	583.25	369.05	1365.04	1881.88	2465.05	2232.19	1274.8	2781.09	1786.64	1883.83	1564.92	997.02	2141.83	775.51	3128.96	3236.85	1892.27	1135.09	1937.32	2522.24	1196.84	527.88	3033.93	2830.99	2094.83	727.33	1901.96	1908.04	2521.46	2428.77	2265.59	3051.2	537.82	3051.68	1035.78	892.6	758.63	3464.6	
120.62	3475.22	874.95	3351.96	1728.58	2964.33	75.0	1349.98	2071.56	1463.84	3499.1	259.24	2483.5	968.77	951.26	790.54	811.82	3302.08	2910.56	966.54		2371.96	798.63	3442.39	1004.5	1026.3	2871.8	933.13	3572.63	2092.11	1819.7	338.71	2043.15	3126.09	504.34	705.84	3217.22	1976.63	2532.52	669.34	2693.8	1796.43	2759.22	1084.28	919.46	920.44	555.21	1820.32	880.37	1297.79	324.78	960.29	3322.12	1021.2	2746.98	853.9	1600.04	452.55	591.82	1562.53	1002.08	664.04	405.77	642.13	1422.1	2104.26	3017.03	1911.4	351.23	3108.62	1027.28	1359.5	738.89	49.65	2614.49	191.09	3424.0	3426.69	991.55	1501.61	1158.65	3000.92	305.13	780.33	3360.07	2751.53	2679.57	463.91	1154.3	1879.05	2647.5	2873.67	2424.18	3017.76	607.98	3401.88	1286.59	444.96	895.48	3545.44	
2309.49	1910.17	2693.57	1765.43	722.97	1080.91	2312.29	1049.13	1428.14	1622.54	1876.68	2378.29	1134.0	1549.25	2489.3	1953.94	1941.26	934.25	546.63	2478.75	2371.96		2602.88	1081.47	1539.47	2255.53	1701.31	2872.01	1234.79	650.04	1067.46	2479.76	348.37	1099.83	2017.18	2812.72	1271.73	522.25	251.64	1848.32	1638.05	661.93	404.36	1473.72	1693.12	2661.08	2350.46	573.03	2210.81	1965.48	2687.66	1512.02	1171.4	1602.7	787.68	2417.85	1335.75	2435.81	2791.03	1860.44	1739.66	2268.61	2266.05	2538.14	1113.86	871.03	1839.27	623.93	2605.14	1319.12	1757.06	1225.38	1955.24	2335.25	1468.73	2366.53	1460.15	1268.06	2156.87	1447.66	1783.68	1635.65	2182.15	1985.76	1479.59	379.59	1783.89	2029.94	1708.51	572.53	624.57	1489.11	660.15	652.48	2686.92	1561.79	1458.22	2772.21	1740.88	1232.37	
909.62	3237.01	1648.82	3135.31	1883.92	2906.94	765.1	1570.35	1824.0	1206.12	3278.45	544.61	2346.33	1553.68	237.72	1524.9	662.28	3476.91	3093.9	259.83	798.63	2602.88		3596.49	1063.77	1816.16	2587.0	269.62	3688.92	2141.34	1751.54	464.25	2328.27	3100.94	673.07	331.88	3148.84	2336.01	2697.91	791.8	2406.03	1948.89	2940.47	1664.72	909.77	1702.93	1353.77	2031.64	427.77	881.38	896.67	1513.32	3330.92	1003.08	2754.07	222.19	1458.85	350.07	436.65	1162.34	1685.2	339.84	477.98	156.52	1499.08	2067.29	2710.11	2300.02	1071.97	2995.78	1718.81	1889.17	1469.14	837.1	2374.53	612.73	3340.34	3430.3	1771.12	1329.95	1865.83	2758.31	1066.11	617.22	3249.93	2965.65	2341.87	688.08	1840.39	2039.68	2696.64	2659.49	2444.19	3198.17	283.82	3271.64	1198.78	647.24	862.07	3638.48	
3384.9	1698.68	3766.26	1594.11	1734.34	1035.99	3380.22	2099.27	2065.26	2486.73	1627.29	3430.35	1540.5	2627.83	3452.28	3028.53	2938.35	159.66	535.01	3438.6	3442.39	1081.47	3596.49		2551.81	3310.0	1885.69	3865.37	204.98	1463.0	1889.71	3526.32	1427.29	850.17	3058.91	3836.2	993.33	1565.97	912.9	2882.78	1929.62	1666.39	683.67	2547.81	2697.99	3730.49	3430.46	1622.9	3182.33	2852.98	3761.33	2592.58	655.2	2597.87	965.57	3395.11	2193.96	3469.18	3828.92	2676.14	2806.07	3274.34	3304.96	3551.22	2102.67	1588.27	1956.53	1661.13	3684.9	1192.66	2820.3	2287.55	3032.35	3407.47	1792.35	3424.27	1037.35	664.12	3214.25	2322.89	2831.24	1710.04	3261.98	2985.01	1149.32	709.46	2105.63	3076.4	2760.0	1577.91	946.18	1627.65	1201.69	429.08	3713.32	1234.0	2403.98	3829.75	2743.9	284.61	
999.2	2476.16	1693.7	2350.45	823.73	1970.64	930.8	515.1	1097.62	567.73	2497.54	911.06	1479.04	857.91	968.13	1118.28	404.47	2425.95	2038.95	960.81	1004.5	1539.47	1063.77	2551.81		1525.69	1889.81	1332.65	2657.7	1124.75	815.6	992.5	1268.93	2142.11	530.64	1284.46	2222.61	1297.72	1644.29	348.54	1716.23	890.08	1885.06	923.48	155.67	1703.89	1285.81	967.87	689.4	650.59	1323.91	786.98	2351.31	102.0	1770.75	886.68	610.2	920.65	1281.37	779.57	1110.2	729.46	763.75	1002.09	451.67	1107.34	2040.39	1276.48	1331.09	2106.48	1150.4	1026.0	1075.08	987.31	1623.28	922.58	2427.32	2454.59	1434.58	534.81	1291.61	2005.78	971.7	447.46	2359.04	1904.86	1724.19	559.36	1228.16	980.52	1688.04	1874.29	1449.24	2144.44	1161.6	2398.88	305.29	1313.12	203.73	2616.5	
909.38	3829.57	530.07	3689.65	1854.91	3146.18	1051.48	1524.44	2575.31	2092.93	3831.47	1271.96	2812.98	779.64	1936.76	408.8	1596.32	3153.16	2787.98	1948.27	1026.3	2255.53	1816.16	3310.0	1525.69		3323.47	1958.11	3480.83	2265.88	2185.26	1364.28	1910.8	3252.93	1300.16	1721.12	3389.2	1745.77	2482.04	1354.85	3164.63	1907.89	2657.04	810.95	1546.85	467.42	489.61	1847.12	1790.48	2082.2	1101.09	845.42	3389.3	1603.41	2873.31	1831.29	2091.65	1466.09	1592.64	2284.22	529.12	1611.16	1365.71	1660.52	1741.21	2377.84	3481.1	1649.1	888.93	3343.63	504.37	1030.36	450.7	983.17	3041.94	1204.5	3598.09	3492.03	102.88	2046.72	480.67	3395.12	753.02	1589.54	3571.19	2604.86	3204.28	1259.39	550.0	1958.72	2733.4	3247.18	2577.29	2887.82	1632.18	3634.05	1820.81	1386.35	1554.77	3486.33	
2882.44	658.66	3572.92	583.27	1544.73	851.08	2796.81	1808.0	800.43	1424.2	712.63	2719.76	585.71	2552.59	2366.39	2922.97	2088.31	1876.83	1704.0	2345.65	2871.8	1701.31	2587.0	1885.69	1889.81	3323.47		2812.95	1831.36	1191.17	1138.26	2765.2	1827.77	1041.12	2369.34	2908.46	938.17	2043.26	1514.93	2203.77	181.62	1516.26	1635.75	2551.8	1953.2	3575.93	3165.57	1642.23	2180.64	1706.26	3175.59	2482.71	1275.97	1854.71	1017.33	2366.15	1279.73	2648.5	2971.61	1425.2	2820.87	2372.85	2544.54	2624.7	1582.68	998.39	158.9	2122.5	3212.07	719.48	2855.66	2451.89	2892.4	2862.08	283.48	2752.22	1025.46	1325.42	3222.86	1370.37	2958.09	218.05	2860.83	2129.81	892.33	1751.69	290.02	2408.32	2878.95	1511.26	1143.48	258.31	1041.51	1742.81	2817.57	860.57	1590.7	3089.8	1976.39	1727.24	
1052.4	3467.3	1722.98	3370.04	2153.44	3164.28	918.61	1837.21	2065.39	1457.59	3511.69	706.82	2597.93	1777.57	449.18	1704.55	931.84	3746.25	3363.46	468.98	933.13	2872.01	269.62	3865.37	1332.65	1958.11	2812.95		3956.52	2408.89	2014.46	600.35	2595.17	3360.61	917.83	260.16	3404.13	2598.38	2967.45	1051.11	2633.11	2218.47	3210.05	1891.21	1179.02	1784.81	1477.43	2300.44	689.24	1117.43	939.75	1742.83	3592.78	1272.69	3017.39	476.68	1718.76	533.72	405.39	1389.63	1885.72	605.41	695.42	359.66	1768.68	2330.39	2930.36	2559.79	1141.84	3246.59	1916.92	2127.85	1649.93	978.44	2610.81	768.24	3593.24	3691.5	1924.56	1588.86	2059.61	2990.9	1226.83	886.62	3499.97	3235.2	2559.0	926.34	2041.48	2309.26	2962.69	2897.74	2709.36	3467.68	326.01	3518.98	1465.58	647.39	1131.4	3905.1	
3519.95	1578.59	3927.9	1485.59	1850.89	997.63	3508.6	2223.87	2091.0	2551.84	1503.01	3548.54	1545.41	2783.87	3535.09	3188.54	3035.85	356.79	693.05	3520.49	3572.63	1234.79	3688.92	204.98	2657.7	3480.83	1831.36	3956.52		1547.63	1958.48	3641.28	1583.1	791.88	3173.34	3939.34	906.53	1735.07	1041.85	2994.86	1893.71	1782.59	830.63	2708.07	2800.03	3894.39	3584.05	1753.41	3269.61	2919.1	3893.91	2745.42	560.29	2697.5	987.49	3482.93	2262.93	3578.02	3938.61	2726.88	2971.21	3372.85	3416.98	3651.2	2206.25	1648.46	1887.14	1832.46	3825.68	1118.83	2987.0	2454.01	3190.02	3539.34	1768.15	3545.73	912.49	539.14	3383.85	2393.38	3003.9	1642.49	3403.44	3082.94	1035.46	876.21	2069.33	3193.03	2931.26	1696.59	1001.81	1576.36	1259.86	593.63	3818.16	1114.51	2491.13	3950.0	2844.92	113.0	
2059.44	1582.15	2610.11	1438.21	411.21	893.85	2022.57	774.29	779.69	1034.55	1575.49	2032.1	609.11	1489.04	1990.15	1894.01	1490.59	1355.28	993.36	1976.17	2092.11	650.04	2141.34	1463.0	1124.75	2265.88	1191.17	2408.89	1547.63		442.83	2116.94	653.33	1037.0	1651.97	2396.77	1144.82	859.42	612.29	1470.33	1084.61	359.56	848.5	1458.24	1259.96	2595.67	2221.58	458.47	1722.47	1396.92	2416.87	1428.48	1231.08	1155.2	655.16	1935.72	739.67	2043.26	2403.66	1248.61	1739.68	1827.66	1888.5	2106.57	676.44	228.97	1345.42	933.62	2384.04	1078.66	1769.14	1303.83	1876.64	2065.53	921.59	2037.69	1354.96	1335.32	2163.0	865.38	1847.24	1192.91	1976.05	1537.87	1312.86	910.89	1204.38	1676.63	1766.71	328.32	563.32	1038.08	333.02	1089.72	2277.5	1371.13	943.7	2435.15	1303.41	1498.55	
1808.87	1677.11	2451.8	1546.08	503.77	1168.25	1746.23	675.17	458.15	597.21	1692.59	1717.06	666.08	1415.4	1582.24	1785.79	1125.59	1789.7	1434.79	1566.67	1819.7	1067.46	1751.54	1889.71	815.6	2185.26	1138.26	2014.46	1958.48	442.83		1788.18	971.92	1353.31	1340.13	2028.81	1417.34	1133.82	1054.89	1160.03	982.8	513.64	1291.12	1419.75	922.15	2450.05	2047.38	667.17	1325.34	963.3	2139.48	1345.01	1579.57	814.6	1002.93	1537.87	304.69	1697.42	2052.55	805.87	1684.65	1457.03	1557.53	1734.88	445.65	315.93	1296.13	1179.24	2140.69	1292.01	1720.1	1349.41	1756.51	1801.14	856.84	1734.09	1618.63	1679.49	2084.61	434.9	1827.61	1219.86	1760.14	1172.74	1545.47	1352.77	1043.59	1372.05	1749.51	565.39	956.97	1078.66	699.74	1529.43	1915.61	1583.61	564.62	2114.51	958.92	1899.16	
455.09	3392.89	1187.28	3277.94	1792.34	2954.67	318.28	1431.98	1969.92	1341.07	3424.36	116.21	2434.74	1213.59	640.49	1105.48	680.07	3393.94	3003.18	658.32	338.71	2479.76	464.25	3526.32	992.5	1364.28	2765.2	600.35	3641.28	2116.94	1788.18		2170.35	3131.52	467.94	396.23	3205.01	2135.72	2613.79	647.5	2584.2	1860.48	2849.62	1329.61	867.07	1239.78	892.85	1910.97	638.05	1104.35	468.25	1188.98	3343.47	974.71	2762.65	554.37	1531.01	140.19	321.18	1386.12	1295.31	415.93	230.71	308.87	1441.6	2092.2	2902.4	2082.58	616.89	3076.69	1324.76	1586.1	1051.29	381.16	2524.06	169.1	3406.81	3446.56	1326.52	1416.15	1464.52	2913.22	626.51	636.64	3331.21	2855.98	2548.94	450.44	1450.62	1948.47	2680.08	2796.81	2441.56	3109.99	281.51	3364.79	1227.11	328.01	829.27	3604.05	
1975.66	2133.03	2345.23	1986.59	511.94	1334.54	1986.06	757.98	1397.74	1452.37	2109.94	2065.21	1242.22	1201.31	2234.78	1605.57	1673.28	1277.52	893.43	2226.26	2043.15	348.37	2328.27	1427.29	1268.93	1910.8	1827.77	2595.17	1583.1	653.33	971.92	2170.35		1391.29	1714.91	2517.41	1551.07	222.07	573.28	1553.82	1733.2	472.7	752.72	1125.4	1424.59	2313.01	2003.28	330.93	1955.19	1767.19	2354.98	1165.3	1493.29	1343.99	1039.79	2155.56	1187.89	2136.29	2486.19	1707.32	1392.47	1989.77	1963.78	2251.66	883.05	877.67	1977.4	316.44	2265.24	1563.54	1410.62	880.53	1607.03	2004.77	1567.41	2048.94	1750.28	1593.38	1811.47	1280.58	1442.19	1800.84	1842.57	1715.46	1752.39	719.76	1857.38	1723.73	1365.87	406.97	880.88	1647.49	819.75	998.3	2390.47	1828.85	1241.96	2453.19	1472.66	1580.06	
3095.96	907.9	3630.83	781.96	1430.77	217.11	3055.64	1807.11	1370.49	1909.78	851.16	3053.15	804.91	2490.88	2920.75	2902.21	2478.04	863.04	809.91	2903.75	3126.09	1099.83	3100.94	850.17	2142.11	3252.93	1041.12	3360.61	791.88	1037.0	1353.31	3131.52	1391.29		2672.73	3382.11	184.55	1602.14	848.66	2490.59	1103.09	1368.39	818.01	2443.06	2265.15	3611.58	3249.79	1407.25	2673.4	2270.39	3450.61	2436.51	254.56	2157.78	384.98	2884.29	1642.2	3047.0	3404.1	2044.39	2724.02	2810.33	2901.11	3088.13	1704.68	1041.27	1106.46	1702.64	3421.03	345.33	2748.97	2240.87	2890.18	3100.68	984.16	3063.31	360.63	338.46	3150.69	1771.77	2804.67	860.02	3012.34	2525.31	393.21	936.15	1278.31	2700.36	2725.42	1303.68	520.25	784.95	704.01	804.49	3268.66	481.87	1917.01	3454.74	2304.96	691.07	
535.31	2978.58	1312.56	2857.74	1324.69	2500.61	429.55	968.1	1568.91	959.77	3004.8	380.59	1997.61	890.16	693.07	940.18	321.47	2927.34	2536.96	698.09	504.34	2017.18	673.07	3058.91	530.64	1300.16	2369.34	917.83	3173.34	1651.97	1340.13	467.94	1714.91	2672.73		804.33	2752.25	1695.64	2146.65	182.16	2190.78	1392.78	2383.25	997.93	422.3	1341.64	926.29	1446.41	495.07	821.67	808.39	844.84	2880.8	527.97	2300.65	585.95	1103.37	421.62	773.86	1071.28	1053.05	358.7	249.11	558.84	975.74	1637.17	2513.65	1650.54	851.95	2632.12	1090.02	1216.12	885.12	500.46	2114.76	394.0	2956.24	2984.31	1231.46	1000.27	1241.15	2502.34	586.6	300.89	2885.56	2391.9	2175.23	44.55	1204.12	1481.01	2214.62	2377.95	1978.67	2643.62	676.94	2923.11	791.14	783.31	393.8	3136.4	
826.46	3555.1	1465.71	3450.3	2106.23	3193.73	703.96	1765.12	2135.94	1510.17	3594.42	511.83	2644.61	1608.49	568.94	1492.57	907.38	3710.12	3322.28	591.07	705.84	2812.72	331.88	3836.2	1284.46	1721.12	2908.46	260.16	3939.34	2396.77	2028.81	396.23	2517.41	3382.11	804.33		3439.15	2499.34	2928.31	964.96	2727.09	2173.28	3168.33	1724.26	1139.37	1528.73	1235.44	2239.93	730.79	1202.6	680.95	1581.78	3605.86	1242.17	3025.85	544.89	1746.09	383.57	145.23	1486.53	1689.64	572.01	558.19	294.27	1734.14	2342.32	3034.27	2452.02	886.02	3293.73	1718.3	1976.68	1439.42	753.73	2689.44	563.04	3634.49	3706.88	1693.7	1620.45	1855.98	3075.36	1008.26	859.95	3548.57	3183.9	2667.73	800.9	1844.59	2263.29	2957.98	2972.26	2710.3	3428.11	127.48	3573.89	1466.25	387.23	1094.46	3894.7	
3193.0	729.28	3752.86	609.24	1549.53	253.07	3145.55	1919.11	1374.29	1947.02	669.48	3131.36	812.54	2620.66	2959.79	3030.15	2541.3	1023.88	993.79	2941.95	3217.22	1271.73	3148.84	993.33	2222.61	3389.2	938.17	3404.13	906.53	1144.82	1417.34	3205.01	1551.07	184.55	2752.25	3439.15		1765.53	1022.0	2570.67	1026.09	1490.11	1001.88	2578.28	2338.17	3736.41	3366.25	1542.36	2721.25	2300.28	3540.73	2563.76	346.34	2230.5	518.47	2929.65	1693.15	3114.51	3468.42	2060.26	2860.13	2869.18	2974.31	3144.9	1796.09	1115.26	982.17	1865.09	3520.91	218.83	2886.46	2386.37	3015.66	3194.01	929.41	3145.15	210.28	387.25	3286.6	1820.01	2948.04	739.54	3117.8	2588.19	210.28	1120.4	1196.93	2781.96	2868.27	1431.9	671.0	692.35	817.02	985.18	3328.89	297.8	1981.31	3530.65	2375.89	798.01	
1898.88	2354.95	2202.68	2208.52	640.45	1553.2	1925.08	784.95	1576.12	1560.33	2331.42	2026.0	1457.57	1078.78	2264.05	1468.29	1696.04	1410.5	1042.35	2257.57	1976.63	522.25	2336.01	1565.97	1297.72	1745.77	2043.26	2598.38	1735.07	859.42	1133.82	2135.72	222.07	1602.14	1695.64	2499.34	1765.53		767.14	1547.62	1943.61	620.36	914.86	989.41	1451.61	2165.3	1880.81	466.84	1986.48	1849.89	2278.14	1054.03	1691.02	1383.17	1257.73	2177.9	1316.16	2115.83	2455.68	1821.51	1240.72	1996.21	1941.38	2246.54	965.47	1077.73	2194.2	101.84	2171.01	1783.7	1254.39	721.95	1476.17	1935.13	1779.3	2002.69	1962.23	1788.91	1649.07	1394.58	1269.34	2021.0	1752.15	1735.06	1968.63	859.13	2062.54	1698.75	1196.22	576.39	1097.31	1867.31	1041.65	1142.13	2371.87	2046.28	1321.98	2401.47	1498.95	1742.71	
2478.34	1674.78	2905.3	1531.43	822.9	839.61	2469.38	1186.67	1350.76	1641.76	1637.68	2517.47	973.56	1756.01	2565.73	2165.51	2036.69	781.85	396.11	2553.38	2532.52	251.64	2697.91	912.9	1644.29	2482.04	1514.93	2967.45	1041.85	612.29	1054.89	2613.79	573.28	848.66	2146.65	2928.31	1022.0	767.14		1971.34	1471.36	755.35	243.48	1688.29	1793.04	2876.22	2550.53	712.26	2291.16	1999.62	2852.97	1713.2	923.93	1695.47	551.95	2502.35	1347.49	2558.58	2917.74	1860.76	1960.47	2370.8	2393.24	2645.93	1199.08	800.63	1644.48	868.94	2784.05	1079.17	1980.15	1452.53	2163.02	2498.57	1303.57	2511.5	1208.78	1022.37	2382.09	1469.79	2015.26	1428.85	2362.03	2082.79	1230.66	299.84	1627.87	2163.71	1938.64	666.01	392.5	1288.14	497.36	500.45	2804.54	1313.9	1518.72	2916.91	1839.67	1024.29	
681.62	2806.22	1429.81	2683.75	1148.57	2318.88	594.51	800.17	1404.11	809.97	2830.88	562.74	1819.65	838.4	761.0	968.91	250.06	2752.75	2363.11	760.88	669.34	1848.32	791.8	2882.78	348.54	1354.85	2203.77	1051.11	2994.86	1470.33	1160.03	647.5	1553.82	2490.59	182.16	964.96	2570.67	1547.62	1971.34		2026.5	1216.42	2209.25	935.94	250.57	1451.34	1030.13	1275.95	514.38	728.32	982.52	782.14	2698.77	352.15	2118.54	660.62	930.77	588.12	946.42	951.22	1039.0	454.31	422.31	699.67	794.38	1455.47	2350.21	1508.93	1008.81	2452.0	1078.17	1122.96	916.91	658.32	1945.2	574.63	2774.95	2802.24	1276.41	833.44	1229.22	2331.59	694.67	258.38	2705.16	2220.97	2018.09	212.02	1181.95	1305.33	2033.19	2204.87	1796.63	2469.51	838.74	2743.51	617.38	965.29	231.67	2956.76	
2706.15	835.37	3403.34	750.0	1414.0	897.37	2618.8	1656.96	622.39	1243.34	885.08	2539.5	504.06	2397.93	2186.11	2761.97	1907.82	1905.88	1698.46	2165.45	2693.8	1638.05	2406.03	1929.62	1716.23	3164.63	181.62	2633.11	1893.71	1084.61	982.8	2584.2	1733.2	1103.09	2190.78	2727.09	1026.09	1943.61	1471.36	2026.5		1391.1	1615.6	2401.79	1775.98	3407.84	2995.6	1524.38	1999.08	1525.07	2996.29	2327.2	1349.49	1678.52	1013.92	2185.03	1106.13	2467.12	2789.99	1244.61	2667.42	2191.29	2363.99	2443.13	1423.69	876.76	324.23	2017.9	3035.18	809.6	2702.91	2314.18	2730.04	2684.74	169.32	2572.52	1140.32	1409.86	3064.66	1193.13	2809.26	370.37	2687.85	1949.1	1012.26	1727.0	176.08	2230.08	2730.73	1394.57	1120.79	338.02	981.14	1747.58	2635.98	992.58	1415.39	2908.56	1798.32	1794.16	
1752.1	1939.82	2263.64	1796.45	68.31	1242.55	1730.35	448.26	961.43	984.79	1934.52	1766.24	948.3	1132.97	1828.59	1540.66	1286.63	1537.17	1149.07	1817.7	1796.43	661.93	1948.89	1666.39	890.08	1907.89	1516.26	2218.47	1782.59	359.56	513.64	1860.48	472.7	1368.39	1392.78	2173.28	1490.11	620.36	755.35	1216.42	1391.1		995.13	1099.17	1040.62	2246.36	1881.52	153.55	1550.73	1312.74	2119.99	1074.32	1540.12	946.03	983.47	1759.21	715.37	1803.31	2162.7	1236.6	1380.87	1618.45	1638.57	1892.16	452.77	517.87	1673.68	667.22	2069.33	1435.74	1409.98	948.41	1525.56	1765.61	1237.28	1763.23	1700.26	1645.13	1805.01	811.38	1487.87	1538.47	1653.48	1332.08	1665.57	1016.83	1488.87	1411.17	1407.35	90.8	863.01	1384.46	673.32	1254.83	2049.3	1726.63	797.75	2167.43	1087.78	1750.51	
2701.23	1703.63	3097.92	1566.34	1062.11	871.24	2697.47	1419.23	1561.81	1881.53	1655.99	2751.79	1135.05	1953.24	2809.18	2358.29	2278.94	544.54	153.95	2796.85	2759.22	404.36	2940.47	683.67	1885.06	2657.04	1635.75	3210.05	830.63	848.5	1291.12	2849.62	752.72	818.01	2383.25	3168.33	1001.88	914.86	243.48	2209.25	1615.6	995.13		1878.06	2034.61	3065.24	2753.72	941.17	2534.49	2240.93	3077.79	1915.11	824.23	1937.73	622.97	2745.55	1586.86	2797.04	3155.55	2096.34	2143.22	2612.5	2630.61	2887.04	1441.42	1023.17	1752.1	1014.85	3001.81	1106.1	2160.07	1627.68	2359.43	2724.04	1452.32	2744.02	1162.98	911.18	2558.94	1710.38	2183.01	1521.88	2578.98	2324.91	1211.22	121.46	1780.59	2399.23	2108.78	905.05	495.0	1393.14	681.18	260.38	3044.15	1299.66	1762.17	3149.79	2081.42	829.33	
983.73	3030.82	1219.87	2889.26	1048.48	2335.34	1051.83	744.83	1842.65	1461.4	3029.5	1213.42	2020.07	116.4	1684.96	480.75	1174.58	2394.73	2016.66	1687.58	1084.28	1473.72	1664.72	2547.81	923.48	810.95	2551.8	1891.21	2708.07	1458.24	1419.75	1329.61	1125.4	2443.06	997.93	1724.26	2578.28	989.41	1688.29	935.94	2401.79	1099.17	1878.06		1013.28	1188.26	892.86	1036.43	1450.19	1567.56	1348.45	154.21	2584.73	1022.29	2062.68	1579.72	1383.31	1359.98	1642.83	1696.53	282.12	1355.63	1196.18	1534.71	990.74	1582.25	2710.56	903.22	1210.83	2534.38	310.94	285.95	486.76	1036.67	2268.43	1169.04	2787.24	2688.14	708.31	1370.29	408.1	2607.74	811.54	1191.82	2760.52	1838.35	2459.57	977.78	331.23	1147.98	1924.12	2457.13	1766.67	2120.07	1602.78	2823.98	1166.41	1528.98	1042.82	2705.05	
931.12	2557.19	1665.42	2435.7	975.0	2087.63	844.54	670.32	1153.61	568.14	2582.78	795.28	1576.07	934.82	813.05	1146.11	249.0	2574.09	2188.38	806.09	919.46	1693.12	909.77	2697.99	155.67	1546.85	1953.2	1179.02	2800.03	1259.96	922.15	867.07	1424.59	2265.15	422.3	1139.37	2338.17	1451.61	1793.04	250.57	1775.98	1040.62	2034.61	1013.28		1682.56	1261.03	1122.3	534.88	558.62	1229.99	867.81	2479.94	107.67	1898.83	731.02	681.6	784.2	1144.07	737.41	1171.11	577.91	636.4	853.32	595.32	1225.2	2099.75	1428.25	1259.22	2213.08	1211.38	1145.01	1098.4	908.88	1695.07	815.24	2540.54	2582.48	1461.15	582.89	1357.92	2081.84	932.03	292.7	2467.07	2056.76	1769.16	458.18	1300.17	1131.31	1822.75	1956.2	1579.32	2293.46	1018.4	2503.07	368.88	1192.56	48.08	2756.28	
832.33	4122.52	77.47	3987.22	2187.2	3487.93	974.69	1827.04	2796.74	2250.2	4132.04	1178.46	3103.23	1124.21	1870.69	712.07	1662.05	3575.68	3201.96	1886.42	920.44	2661.08	1702.93	3730.49	1703.89	467.42	3575.93	1784.81	3894.39	2595.67	2450.05	1239.78	2313.01	3611.58	1341.64	1528.73	3736.41	2165.3	2876.22	1451.34	3407.84	2246.36	3065.24	1188.26	1682.56		421.67	2207.62	1788.79	2162.84	850.94	1175.4	3765.21	1761.53	3227.63	1774.29	2306.55	1367.67	1386.75	2401.91	924.58	1579.73	1320.12	1548.53	2006.64	2678.77	3730.33	2072.58	642.98	3671.46	912.18	1443.35	721.39	893.68	3300.31	1111.13	3946.6	3869.3	540.83	2238.69	929.25	3669.89	758.21	1642.26	3908.52	3021.73	3426.14	1297.15	988.56	2307.93	3096.9	3527.81	2919.44	3304.32	1467.76	3965.51	2009.15	1152.16	1677.1	3893.01	
447.18	3723.73	408.06	3590.56	1819.16	3115.39	593.9	1447.54	2381.41	1828.84	3736.25	811.38	2706.53	803.56	1497.18	429.84	1244.86	3279.53	2896.64	1511.0	555.21	2350.46	1353.77	3430.46	1285.81	489.61	3165.57	1477.43	3584.05	2221.58	2047.38	892.85	2003.28	3249.79	926.29	1235.44	3366.25	1880.81	2550.53	1030.13	2995.6	1881.52	2753.72	892.86	1261.03	421.67		1859.35	1388.6	1745.4	615.65	838.63	3416.23	1341.02	2864.82	1395.73	1891.59	1006.29	1104.59	1981.11	681.46	1188.39	931.39	1197.25	1607.85	2288.92	3318.87	1795.97	409.72	3290.03	686.82	1173.22	408.83	517.64	2892.17	742.71	3576.46	3521.01	480.78	1820.29	769.23	3265.75	339.82	1227.15	3531.6	2721.82	3009.66	882.07	799.22	1949.68	2741.73	3126.02	2550.44	3001.55	1151.67	3585.05	1591.03	896.87	1255.43	3574.18	
1766.59	2035.07	2229.89	1890.1	181.6	1301.52	1757.5	479.03	1113.4	1121.62	2024.6	1811.63	1065.19	1084.55	1924.81	1496.57	1371.02	1485.56	1093.96	1915.17	1820.32	573.03	2031.64	1622.9	967.87	1847.12	1642.23	2300.44	1753.41	458.47	667.17	1910.97	330.93	1407.25	1446.41	2239.93	1542.36	466.84	712.26	1275.95	1524.38	153.55	941.17	1036.43	1122.3	2207.62	1859.35		1645.44	1437.92	2140.75	1032.47	1558.77	1034.76	1026.25	1850.11	860.68	1863.82	2220.12	1377.43	1318.0	1696.34	1694.91	1965.19	557.88	647.62	1798.26	515.15	2074.93	1508.12	1344.1	854.44	1486.81	1786.31	1366.72	1802.97	1751.01	1663.25	1744.62	950.27	1409.18	1651.24	1654.1	1414.97	1727.42	945.5	1628.82	1460.6	1328.96	131.14	889.78	1496.45	736.01	1201.08	2114.29	1793.65	914.69	2208.78	1170.23	1730.81	
956.74	2825.01	1749.62	2719.56	1488.01	2479.17	817.74	1204.44	1405.17	781.22	2863.78	641.9	1919.98	1351.2	279.63	1435.22	295.24	3066.43	2687.14	271.45	880.37	2210.81	427.77	3182.33	689.4	1790.48	2180.64	689.24	3269.61	1722.47	1325.34	638.05	1955.19	2673.4	495.07	730.79	2721.25	1986.48	2291.16	514.38	1999.08	1550.73	2534.49	1450.19	534.88	1788.79	1388.6	1645.44		480.68	1102.0	1296.26	2904.17	611.47	2328.24	213.36	1031.22	501.78	792.34	766.81	1538.45	223.66	474.8	444.08	1098.0	1641.25	2309.38	1962.06	1220.25	2569.52	1576.5	1631.4	1380.19	899.09	1958.74	700.24	2913.28	3003.25	1724.69	902.19	1728.05	2345.04	1055.88	264.7	2823.92	2565.83	1946.24	533.1	1686.1	1641.3	2274.1	2241.49	2020.31	2790.19	637.04	2846.92	778.84	937.41	487.59	3216.87	
1350.43	2355.64	2134.2	2254.85	1260.91	2066.85	1227.21	1085.36	948.1	367.27	2397.55	1087.59	1489.13	1492.66	668.28	1690.38	500.79	2751.14	2388.7	648.82	1297.79	1965.48	881.38	2852.98	650.59	2082.2	1706.26	1117.43	2919.1	1396.92	963.3	1104.35	1767.19	2270.39	821.67	1202.6	2300.28	1849.89	1999.62	728.32	1525.07	1312.74	2240.93	1567.56	558.62	2162.84	1745.4	1437.92	480.68		1556.07	1424.7	2511.11	548.97	1948.48	660.01	659.14	973.78	1272.19	286.14	1729.06	691.0	909.71	922.78	887.12	1270.67	1831.83	1850.03	1648.19	2134.93	1769.27	1674.97	1640.07	1305.51	1494.55	1136.54	2484.19	2606.23	2001.69	531.55	1916.34	1877.17	1405.76	522.69	2387.01	2290.73	1466.72	866.22	1858.76	1397.85	1917.42	1780.77	1659.27	2486.39	1115.73	2403.48	528.16	1414.48	537.78	2856.12	
379.75	3786.94	785.87	3665.66	2052.26	3287.93	395.21	1672.89	2375.37	1757.62	3812.76	468.7	2801.56	1236.78	1099.43	977.43	1094.51	3619.65	3228.48	1118.54	324.78	2687.66	896.67	3761.33	1323.91	1101.09	3175.59	939.75	3893.91	2416.87	2139.48	468.25	2354.98	3450.61	808.39	680.95	3540.73	2278.14	2852.97	982.52	2996.29	2119.99	3077.79	1348.45	1229.99	850.94	615.65	2140.75	1102.0	1556.07		1240.03	3646.89	1334.26	3071.71	1019.65	1911.53	608.38	537.27	1832.06	1217.12	878.4	647.32	753.41	1746.32	2427.0	3318.25	2208.3	216.12	3429.96	1234.79	1631.67	934.81	354.68	2922.92	425.68	3747.16	3751.47	1096.25	1808.2	1346.75	3310.68	537.01	1057.23	3681.96	3067.19	2974.17	771.88	1359.02	2202.02	2972.17	3186.16	2748.89	3335.61	634.24	3722.7	1598.78	301.4	1202.12	3867.98	
866.83	2984.55	1197.7	2845.06	1017.61	2316.86	922.07	679.12	1751.94	1336.96	2987.37	1072.85	1967.56	73.6	1530.9	466.4	1022.06	2442.44	2058.39	1533.44	960.29	1512.02	1513.32	2592.58	786.98	845.42	2482.71	1742.83	2745.42	1428.48	1345.01	1188.98	1165.3	2436.51	844.84	1581.78	2563.76	1054.03	1713.2	782.14	2327.2	1074.32	1915.11	154.21	867.81	1175.4	838.63	1032.47	1296.26	1424.7	1240.03		2590.88	883.54	2052.95	1425.77	1280.7	1213.34	1505.21	1564.91	343.68	1202.1	1047.42	1385.27	904.98	1532.77	2640.88	976.31	1118.92	2507.08	381.61	400.31	454.34	914.19	2200.29	1031.68	2773.73	2695.19	743.34	1256.88	510.6	2550.18	705.27	1038.51	2739.66	1884.59	2375.7	825.65	442.74	1133.16	1921.51	2401.89	1747.49	2163.55	1458.98	2799.49	1044.94	1402.66	895.39	2736.16	
3285.99	1044.81	3788.53	939.0	1605.5	471.67	3253.07	1986.34	1621.59	2148.04	975.29	3261.32	1057.21	2641.09	3155.96	3053.38	2699.37	705.54	768.64	3139.42	3322.12	1171.4	3330.92	655.2	2351.31	3389.3	1275.97	3592.78	560.29	1231.08	1579.57	3343.47	1493.29	254.56	2880.8	3605.86	346.34	1691.02	923.93	2698.77	1349.49	1540.12	824.23	2584.73	2479.94	3765.21	3416.23	1558.77	2904.17	2511.11	3646.89	2590.88		2373.22	581.12	3116.11	1874.45	3263.83	3622.67	2290.88	2862.72	3033.88	3113.83	3312.55	1906.71	1264.3	1327.21	1792.84	3607.17	559.46	2885.18	2365.12	3045.13	3294.57	1235.95	3268.27	392.76	105.02	3288.03	2004.93	2929.89	1083.15	3193.24	2746.78	495.29	929.25	1523.6	2906.53	2852.0	1467.42	677.36	1023.9	902.14	729.8	3490.4	581.81	2139.65	3664.05	2521.21	452.64	
1027.74	2454.12	1747.55	2331.65	881.53	1979.97	946.46	598.26	1056.65	492.39	2478.77	902.6	1469.67	953.65	891.1	1198.08	341.22	2475.6	2091.29	882.3	1021.2	1602.7	1003.08	2597.87	102.0	1603.41	1854.71	1272.69	2697.5	1155.2	814.6	974.71	1343.99	2157.78	527.97	1242.17	2230.5	1383.17	1695.47	352.15	1678.52	946.03	1937.73	1022.29	107.67	1761.53	1341.02	1034.76	611.47	548.97	1334.26	883.54	2373.22		1792.11	815.48	578.88	890.63	1250.0	688.65	1201.88	676.47	744.02	953.94	496.4	1117.63	2002.62	1365.87	1357.62	2105.77	1242.16	1128.0	1152.92	1008.73	1593.97	921.59	2432.91	2475.63	1514.42	486.38	1385.15	1979.83	1017.81	387.42	2359.68	1962.85	1676.87	562.54	1323.2	1036.83	1717.51	1852.73	1473.06	2195.89	1122.32	2396.01	265.41	1300.22	148.31	2652.58	
2714.48	1123.6	3246.36	979.74	1045.79	296.02	2677.17	1422.58	1104.75	1582.46	1089.0	2681.23	577.48	2108.13	2583.9	2518.96	2118.96	912.06	687.42	2567.91	2746.98	787.68	2754.07	965.57	1770.75	2873.31	1017.33	3017.39	987.49	655.16	1002.93	2762.65	1039.79	384.98	2300.65	3025.85	518.47	1257.73	551.95	2118.54	1013.92	983.47	622.97	2062.68	1898.83	3227.63	2864.82	1026.25	2328.24	1948.48	3071.71	2052.95	581.12	1792.11		2540.81	1301.95	2682.73	3041.65	1743.81	2344.2	2453.98	2532.89	2732.84	1327.98	687.01	1129.61	1355.67	3038.46	531.86	2369.95	1867.92	2506.28	2720.64	858.96	2689.13	725.44	683.9	2770.84	1432.94	2429.88	899.18	2628.49	2166.38	713.82	742.02	1185.36	2326.91	2350.19	919.8	163.38	770.92	322.9	733.73	2909.88	789.07	1559.96	3083.76	1940.12	913.48	
949.87	3015.37	1727.35	2913.27	1695.73	2688.77	803.65	1400.65	1601.81	985.08	3056.51	596.37	2125.67	1474.22	108.0	1504.37	482.89	3278.56	2898.42	117.09	853.9	2417.85	222.19	3395.11	886.68	1831.29	2366.15	476.68	3482.93	1935.72	1537.87	554.37	2155.56	2884.29	585.95	544.89	2929.65	2177.9	2502.35	660.62	2185.03	1759.21	2745.55	1579.72	731.02	1774.29	1395.73	1850.11	213.36	660.01	1019.65	1425.77	3116.11	815.48	2540.81		1242.24	415.58	629.29	942.38	1636.26	229.11	466.65	285.33	1306.87	1853.8	2490.4	2148.77	1168.41	2774.98	1672.47	1782.12	1448.4	883.11	2152.44	663.21	3120.22	3214.89	1775.19	1112.54	1822.89	2536.47	1080.1	442.83	3028.95	2775.31	2123.14	613.58	1788.59	1849.92	2487.41	2437.32	2233.47	3001.77	470.55	3050.1	992.03	809.67	682.97	3430.22	
1604.68	1875.62	2299.62	1754.41	679.74	1448.91	1525.25	681.14	490.2	294.88	1901.45	1469.94	904.73	1354.09	1282.13	1683.69	854.9	2092.33	1732.9	1266.0	1600.04	1335.75	1458.85	2193.96	610.2	2091.65	1279.73	1718.76	2262.93	739.67	304.69	1531.01	1187.89	1642.2	1103.37	1746.09	1693.15	1316.16	1347.49	930.77	1106.13	715.37	1586.86	1383.31	681.6	2306.55	1891.59	860.68	1031.22	659.14	1911.53	1280.7	1874.45	578.88	1301.95	1242.24		1430.36	1779.16	525.55	1623.96	1177.1	1302.22	1451.87	414.8	616.86	1430.23	1342.3	1935.5	1550.83	1662.26	1375.41	1646.89	1587.42	1015.55	1494.48	1888.77	1972.81	1994.92	131.06	1786.48	1400.96	1581.73	900.88	1805.84	1642.39	1120.32	1139.78	1712.87	789.26	1261.23	1274.63	1003.61	1829.29	1636.93	1835.82	313.46	1859.0	710.52	2202.73	
560.51	3281.35	1317.66	3168.83	1735.68	2865.64	415.28	1386.91	1856.91	1226.22	3314.82	195.14	2335.08	1245.62	505.06	1181.4	575.46	3340.24	2950.94	522.07	452.55	2435.81	350.07	3469.18	920.65	1466.09	2648.5	533.72	3578.02	2043.26	1697.42	140.19	2136.29	3047.0	421.62	383.57	3114.51	2115.83	2558.58	588.12	2467.12	1803.31	2797.04	1359.98	784.2	1367.67	1006.29	1863.82	501.78	973.78	608.38	1213.34	3263.83	890.63	2682.73	415.58	1430.36		360.72	1257.53	1353.7	282.79	174.67	195.06	1372.32	2005.88	2783.44	2068.55	753.17	2980.28	1385.63	1603.42	1126.0	488.72	2412.14	263.69	3314.28	3366.17	1421.58	1311.52	1529.99	2801.11	716.59	529.64	3235.18	2809.02	2426.86	417.35	1509.45	1892.62	2606.39	2687.9	2363.51	3057.24	256.11	3266.18	1133.22	442.76	742.65	3537.12	
711.51	3612.61	1322.85	3504.01	2094.92	3220.57	601.07	1741.96	2189.11	1559.05	3649.15	435.08	2682.65	1526.48	672.2	1382.35	927.16	3699.16	3309.38	694.09	591.82	2791.03	436.65	3828.92	1281.37	1592.64	2971.61	405.39	3938.61	2403.66	2052.55	321.18	2486.19	3404.1	773.86	145.23	3468.42	2455.68	2917.74	946.42	2789.99	2162.7	3155.55	1642.83	1144.07	1386.75	1104.59	2220.12	792.34	1272.19	537.27	1505.21	3622.67	1250.0	3041.65	629.29	1779.16	360.72		1558.19	1589.25	604.74	525.24	349.87	1733.03	2362.84	3101.5	2403.37	744.88	3329.97	1616.07	1903.81	1330.53	641.04	2744.39	473.85	3666.71	3724.74	1569.57	1657.04	1749.81	3132.21	896.91	880.22	3584.98	3165.61	2738.52	762.53	1742.94	2251.74	2966.69	3024.1	2723.05	3415.85	158.75	3613.68	1487.93	242.0	1101.77	3897.84	
1606.11	2077.86	2378.21	1980.84	1195.84	1835.23	1490.15	1108.22	689.77	263.84	2122.12	1363.48	1248.12	1636.55	941.73	1882.32	752.17	2585.02	2238.51	921.23	1562.53	1860.44	1162.34	2676.14	779.57	2284.22	1425.2	1389.63	2726.88	1248.61	805.87	1386.12	1707.32	2044.39	1071.28	1486.53	2060.26	1821.51	1860.76	951.22	1244.61	1236.6	2096.34	1696.53	737.41	2401.91	1981.11	1377.43	766.81	286.14	1832.06	1564.91	2290.88	688.65	1743.81	942.38	525.55	1257.53	1558.19		1889.51	975.07	1184.75	1208.63	866.98	1088.96	1548.02	1837.4	1913.76	1885.19	1929.75	1760.75	1835.32	1566.34	1223.13	1409.17	2237.02	2382.46	2197.93	427.66	2071.13	1601.32	1644.05	782.21	2134.27	2158.43	1181.42	1115.43	2007.04	1313.27	1731.21	1511.23	1474.49	2331.15	1401.49	2145.65	547.73	1699.16	732.36	2657.05	
887.34	3309.69	963.23	3168.64	1329.4	2617.43	988.49	1013.32	2095.44	1670.17	3309.41	1182.43	2296.57	270.9	1744.07	252.18	1288.51	2651.12	2278.41	1750.17	1002.08	1739.66	1685.2	2806.07	1110.2	529.12	2820.87	1885.72	2971.21	1739.68	1684.65	1295.31	1392.47	2724.02	1053.05	1689.64	2860.13	1240.72	1960.47	1039.0	2667.42	1380.87	2143.22	282.12	1171.11	924.58	681.46	1318.0	1538.45	1729.06	1217.12	343.68	2862.72	1201.88	2344.2	1636.26	1623.96	1353.7	1589.25	1889.51		1407.22	1207.22	1541.95	1247.21	1859.45	2979.35	1148.38	1049.03	2816.32	40.31	518.79	284.61	952.45	2537.93	1126.91	3068.98	2965.79	426.69	1597.23	190.22	2882.57	701.09	1296.13	3042.64	2097.56	2718.41	1022.86	155.77	1430.09	2204.67	2732.83	2048.79	2380.31	1576.48	3106.07	1381.53	1439.68	1191.86	2972.02	
748.11	3010.16	1537.56	2900.25	1552.61	2622.91	605.19	1231.8	1585.85	955.15	3045.65	419.53	2079.09	1248.66	337.05	1277.05	337.09	3151.57	2766.25	344.33	664.04	2268.61	339.84	3274.34	729.46	1611.16	2372.85	605.41	3372.85	1827.66	1457.03	415.93	1989.77	2810.33	358.7	572.01	2869.18	1996.21	2370.8	454.31	2191.29	1618.45	2612.5	1355.63	577.91	1579.73	1188.39	1696.34	223.66	691.0	878.4	1202.1	3033.88	676.47	2453.98	229.11	1177.1	282.79	604.74	975.07	1407.22		259.62	279.15	1172.25	1770.32	2505.85	1960.77	999.14	2727.18	1443.38	1565.86	1221.16	686.44	2141.35	479.83	3065.81	3134.87	1552.14	1053.43	1593.78	2529.71	863.93	289.92	2982.18	2634.16	2147.16	384.78	1559.7	1709.09	2387.69	2420.01	2138.98	2871.24	459.84	3009.82	894.24	724.19	531.13	3326.17	
488.85	3168.07	1278.08	3051.76	1570.65	2723.97	345.58	1216.93	1746.99	1120.91	3198.37	178.85	2205.23	1083.08	571.18	1052.02	456.25	3174.42	2784.4	583.25	405.77	2266.05	477.98	3304.96	763.75	1365.71	2544.54	695.42	3416.98	1888.5	1557.53	230.71	1963.78	2901.11	249.11	558.19	2974.31	1941.38	2393.24	422.31	2363.99	1638.57	2630.61	1196.18	636.4	1320.12	931.39	1694.91	474.8	909.71	647.32	1047.42	3113.83	744.02	2532.89	466.65	1302.22	174.67	525.24	1184.75	1207.22	259.62		338.95	1214.16	1861.57	2683.76	1893.89	747.13	2846.44	1240.88	1433.9	996.04	426.86	2299.87	228.21	3176.16	3216.78	1312.12	1189.04	1388.2	2688.95	613.64	415.25	3100.89	2640.39	2334.13	242.71	1362.43	1727.3	2451.78	2570.69	2212.12	2890.94	430.76	3134.9	996.97	557.56	598.63	3378.22	
753.3	3268.23	1495.41	3161.59	1825.76	2899.47	609.15	1495.08	1846.6	1218.76	3306.2	388.61	2351.05	1421.89	348.81	1374.88	616.0	3427.26	3040.91	369.05	642.13	2538.14	156.52	3551.22	1002.09	1660.52	2624.7	359.66	3651.2	2106.57	1734.88	308.87	2251.66	3088.13	558.84	294.27	3144.9	2246.54	2645.93	699.67	2443.13	1892.16	2887.04	1534.71	853.32	1548.53	1197.25	1965.19	444.08	922.78	753.41	1385.27	3312.55	953.94	2732.84	285.33	1451.87	195.06	349.87	1208.63	1541.95	279.15	338.95		1448.59	2048.7	2753.3	2205.29	921.08	3000.0	1574.69	1768.52	1319.32	680.66	2401.11	456.51	3340.37	3413.38	1616.6	1326.45	1720.34	2788.06	911.63	568.7	3254.89	2906.26	2389.42	566.68	1697.54	1982.6	2666.8	2682.65	2418.09	3146.24	193.04	3280.78	1172.94	525.58	807.33	3605.02	
1397.38	2116.59	2010.23	1982.76	391.04	1543.05	1351.2	266.55	851.97	603.19	2128.4	1355.71	1098.68	976.62	1375.84	1340.44	837.61	1979.36	1594.94	1365.04	1422.1	1113.86	1499.08	2102.67	451.67	1741.21	1582.68	1768.68	2206.25	676.44	445.65	1441.6	883.05	1704.68	975.74	1734.14	1796.09	965.47	1199.08	794.38	1423.69	452.77	1441.42	990.74	595.32	2006.64	1607.85	557.88	1098.0	887.12	1746.32	904.98	1906.71	496.4	1327.98	1306.87	414.8	1372.32	1733.03	866.98	1247.21	1172.25	1214.16	1448.59		688.77	1740.04	973.4	1726.53	1696.55	1283.74	962.01	1310.86	1398.05	1302.08	1361.57	2003.75	2010.63	1641.03	450.87	1398.28	1664.36	1331.84	883.76	1944.8	1468.46	1471.28	1000.2	1321.97	543.3	1238.88	1521.23	1005.22	1699.49	1612.19	1991.52	359.56	1758.79	641.35	2164.86	
2084.48	1451.78	2686.99	1312.64	548.77	863.44	2032.04	855.86	557.98	903.41	1455.77	2016.65	438.21	1598.37	1897.63	1991.41	1437.05	1496.28	1158.35	1881.88	2104.26	871.03	2067.29	1588.27	1107.34	2377.84	998.39	2330.39	1648.46	228.97	315.93	2092.2	877.67	1041.27	1637.17	2342.32	1115.26	1077.73	800.63	1455.47	876.76	517.87	1023.17	1582.25	1225.2	2678.77	2288.92	647.62	1641.25	1270.67	2427.0	1532.77	1264.3	1117.63	687.01	1853.8	616.86	2005.88	2362.84	1088.96	1859.45	1770.32	1861.57	2048.7	688.77		1155.86	1146.33	2414.5	1007.81	1891.69	1459.09	1968.41	2082.42	720.07	2029.9	1320.44	1364.73	2275.43	747.89	1982.5	1028.23	2020.19	1484.37	1256.88	1099.86	985.84	1666.7	1902.36	517.94	647.01	876.01	388.8	1246.86	2227.94	1302.75	876.27	2416.82	1264.29	1586.31	
3030.16	571.46	3726.49	528.62	1702.86	933.43	2942.03	1966.62	946.19	1562.88	637.84	2859.91	737.52	2710.9	2486.1	3080.04	2227.91	1959.25	1811.18	2465.05	3017.03	1839.27	2710.11	1956.53	2040.39	3481.1	158.9	2930.36	1887.14	1345.42	1296.13	2902.4	1977.4	1106.46	2513.65	3034.27	982.17	2194.2	1644.48	2350.21	324.23	1673.68	1752.1	2710.56	2099.75	3730.33	3318.87	1798.26	2309.38	1831.83	3318.25	2640.88	1327.21	2002.62	1129.61	2490.4	1430.23	2783.44	3101.5	1548.02	2979.35	2505.85	2683.76	2753.3	1740.04	1155.86		2274.83	3358.98	768.46	3014.21	2610.5	3049.08	3008.36	442.37	2893.95	1038.45	1365.7	3380.62	1517.0	3116.92	246.52	3011.95	2268.58	902.5	1870.04	373.6	2553.2	3037.81	1667.19	1265.01	359.05	1181.63	1843.13	2946.33	856.0	1739.62	3225.58	2121.63	1779.75	
1830.0	2447.92	2111.34	2301.46	677.83	1650.73	1862.13	771.18	1628.43	1574.46	2425.74	1971.34	1537.39	996.75	2237.74	1379.69	1669.18	1504.83	1140.32	2232.19	1911.4	623.93	2300.02	1661.13	1276.48	1649.1	2122.5	2559.79	1832.46	933.62	1179.24	2082.58	316.44	1702.64	1650.54	2452.02	1865.09	101.84	868.94	1508.93	2017.9	667.22	1014.85	903.22	1428.25	2072.58	1795.97	515.15	1962.06	1850.03	2208.3	976.31	1792.84	1365.87	1355.67	2148.77	1342.3	2068.55	2403.37	1837.4	1148.38	1960.77	1893.89	2205.29	973.4	1146.33	2274.83		2095.13	1879.98	1160.73	630.04	1389.58	1868.82	1855.19	1945.29	2062.53	1890.75	1553.12	1412.88	1171.44	2106.5	1678.68	1706.58	2067.52	956.26	2132.17	1651.24	1099.18	634.74	1195.97	1952.33	1132.14	1239.05	2324.63	2144.59	1324.29	2340.87	1474.91	1841.78	
332.03	3807.19	582.07	3681.38	2002.85	3267.87	424.19	1621.45	2412.82	1811.42	3828.44	580.04	2806.62	1104.76	1257.23	801.18	1162.85	3539.37	3150.15	1274.8	351.23	2605.14	1071.97	3684.9	1331.09	888.93	3212.07	1141.84	3825.68	2384.04	2140.69	616.89	2265.24	3421.03	851.95	886.02	3520.91	2171.01	2784.05	1008.81	3035.18	2069.33	3001.81	1210.83	1259.22	642.98	409.72	2074.93	1220.25	1648.19	216.12	1118.92	3607.17	1357.62	3038.46	1168.41	1935.5	753.17	744.88	1913.76	1049.03	999.14	747.13	921.08	1726.53	2414.5	3358.98	2095.13		3422.05	1062.35	1496.73	764.44	351.77	2951.05	520.02	3729.35	3712.13	889.52	1842.04	1163.29	3335.63	422.98	1131.56	3671.2	2983.23	3025.38	810.05	1183.08	2147.14	2929.99	3205.31	2717.06	3256.8	826.36	3716.58	1622.5	515.05	1238.53	3805.68	
3091.64	599.05	3683.64	460.25	1489.81	239.83	3035.74	1844.97	1195.62	1789.9	558.51	3008.35	649.54	2567.64	2799.58	2972.32	2405.0	1208.22	1124.89	2781.09	3108.62	1319.12	2995.78	1192.66	2106.48	3343.63	719.48	3246.59	1118.83	1078.66	1292.01	3076.69	1563.54	345.33	2632.12	3293.73	218.83	1783.7	1079.17	2452.0	809.6	1435.74	1106.1	2534.38	2213.08	3671.46	3290.03	1508.12	2569.52	2134.93	3429.96	2507.08	559.46	2105.77	531.86	2774.98	1550.83	2980.28	3329.97	1885.19	2816.32	2727.18	2846.44	3000.0	1696.55	1007.81	768.46	1879.98	3422.05		2844.87	2361.79	2954.06	3088.1	721.06	3026.1	352.93	606.03	3240.75	1673.88	2916.58	523.75	3027.41	2451.3	255.02	1227.42	979.22	2664.01	2836.21	1388.5	695.24	474.22	772.35	1133.36	3186.79	295.26	1849.58	3403.98	2248.36	1012.08	
911.36	3341.19	953.57	3199.84	1359.41	2644.55	1015.93	1047.76	2132.73	1710.07	3340.26	1212.51	2329.13	308.42	1780.34	261.52	1327.8	2664.84	2294.01	1786.64	1027.28	1757.06	1718.81	2820.3	1150.4	504.37	2855.66	1916.92	2987.0	1769.14	1720.1	1324.76	1410.62	2748.97	1090.02	1718.3	2886.46	1254.39	1980.15	1078.17	2702.91	1409.98	2160.07	310.94	1211.38	912.18	686.82	1344.1	1576.5	1769.27	1234.79	381.61	2885.18	1242.16	2369.95	1672.47	1662.26	1385.63	1616.07	1929.75	40.31	1443.38	1240.88	1574.69	1283.74	1891.69	3014.21	1160.73	1062.35	2844.87		533.03	300.01	977.64	2572.6	1156.06	3095.04	2988.02	402.85	1636.4	151.56	2915.78	724.61	1335.07	3070.01	2112.46	2755.02	1059.32	127.02	1457.64	2229.26	2765.73	2076.36	2395.37	1606.14	3134.05	1421.15	1462.57	1232.03	2989.21	
1263.1	2885.88	1481.35	2741.64	910.49	2150.91	1322.33	695.89	1796.7	1508.35	2877.62	1470.21	1894.79	394.89	1883.78	751.39	1342.26	2132.41	1761.0	1883.83	1359.5	1225.38	1889.17	2287.55	1026.0	1030.36	2451.89	2127.85	2454.01	1303.83	1349.41	1586.1	880.53	2240.87	1216.12	1976.68	2386.37	721.95	1452.53	1122.96	2314.18	948.41	1627.68	285.95	1145.01	1443.35	1173.22	854.44	1631.4	1674.97	1631.67	400.31	2365.12	1128.0	1867.92	1782.12	1375.41	1603.42	1903.81	1760.75	518.79	1565.86	1433.9	1768.52	962.01	1459.09	2610.5	630.04	1496.73	2361.79	533.03		764.68	1312.88	2169.45	1430.83	2592.72	2466.95	931.49	1389.54	564.93	2485.56	1094.7	1367.17	2576.76	1579.46	2390.68	1202.79	486.9	978.62	1720.8	2331.99	1589.45	1862.35	1852.6	2645.27	1213.95	1802.63	1182.44	2456.98	
620.3	3417.78	743.75	3280.32	1467.1	2767.73	735.71	1113.07	2133.27	1642.23	3424.04	943.19	2398.27	407.02	1556.11	56.04	1163.41	2880.0	2499.98	1564.92	738.89	1955.24	1469.14	3032.35	1075.08	450.7	2892.4	1649.93	3190.02	1876.64	1756.51	1051.29	1607.03	2890.18	885.12	1439.42	3015.66	1476.17	2163.02	916.91	2730.04	1525.56	2359.43	486.76	1098.4	721.39	408.83	1486.81	1380.19	1640.07	934.81	454.34	3045.13	1152.92	2506.28	1448.4	1646.89	1126.0	1330.53	1835.32	284.61	1221.16	996.04	1319.32	1310.86	1968.41	3049.08	1389.58	764.44	2954.06	300.01	764.68		689.53	2612.68	882.37	3225.79	3149.39	362.77	1598.09	420.43	2973.52	433.79	1161.24	3189.27	2322.98	2763.47	848.01	424.61	1586.55	2375.74	2828.19	2198.84	2604.04	1332.25	3247.48	1371.3	1167.39	1108.23	3184.01	
74.03	3461.39	851.28	3337.04	1697.95	2941.0	81.4	1318.29	2062.35	1459.67	3484.17	293.74	2465.98	921.38	982.39	741.36	814.3	3266.38	2875.03	997.02	49.65	2335.25	837.1	3407.47	987.31	983.17	2862.08	978.44	3539.34	2065.53	1801.14	381.16	2004.77	3100.68	500.46	753.73	3194.01	1935.13	2498.57	658.32	2684.74	1765.61	2724.04	1036.67	908.88	893.68	517.64	1786.31	899.09	1305.51	354.68	914.19	3294.57	1008.73	2720.64	883.11	1587.42	488.72	641.04	1566.34	952.45	686.44	426.86	680.66	1398.05	2082.42	3008.36	1868.82	351.77	3088.1	977.64	1312.88	689.53		2602.7	225.08	3401.27	3399.25	946.22	1491.75	1109.16	2988.28	255.88	785.07	3338.93	2714.84	2673.72	458.33	1104.65	1847.42	2619.17	2859.61	2398.01	2982.2	653.98	3381.81	1274.04	493.33	887.19	3513.3	
2620.15	869.21	3298.86	760.95	1263.75	771.37	2539.59	1524.86	555.52	1186.47	905.09	2472.79	334.74	2269.95	2161.81	2642.5	1844.34	1760.68	1539.37	2141.83	2614.49	1468.73	2374.53	1792.35	1623.28	3041.94	283.48	2610.81	1768.15	921.59	856.84	2524.06	1567.41	984.16	2114.76	2689.44	929.41	1779.3	1303.57	1945.2	169.32	1237.28	1452.32	2268.43	1695.07	3300.31	2892.17	1366.72	1958.74	1494.55	2922.92	2200.29	1235.95	1593.97	858.96	2152.44	1015.55	2412.14	2744.39	1223.13	2537.93	2141.35	2299.87	2401.11	1302.08	720.07	442.37	1855.19	2951.05	721.06	2572.6	2169.45	2612.68	2602.7		2502.05	1067.34	1304.41	2941.12	1114.77	2674.63	389.17	2591.87	1887.41	947.53	1562.39	328.47	2152.51	2595.48	1236.22	958.34	288.86	812.15	1592.08	2593.0	942.5	1328.71	2850.72	1720.97	1672.28	
296.95	3367.98	1064.49	3248.62	1694.92	2893.22	153.16	1325.06	1952.47	1332.4	3395.58	68.68	2391.22	1052.72	760.17	936.68	668.84	3288.5	2896.92	775.51	191.09	2366.53	612.73	3424.27	922.58	1204.5	2752.22	768.24	3545.73	2037.69	1734.09	169.1	2048.94	3063.31	394.0	563.04	3145.15	2002.69	2511.5	574.63	2572.52	1763.23	2744.02	1169.04	815.24	1111.13	742.71	1802.97	700.24	1136.54	425.68	1031.68	3268.27	921.59	2689.13	663.21	1494.48	263.69	473.85	1409.17	1126.91	479.83	228.21	456.51	1361.57	2029.9	2893.95	1945.29	520.02	3026.1	1156.06	1430.83	882.37	225.08	2502.05		3349.57	3372.15	1163.03	1387.55	1295.46	2890.47	459.98	631.75	3279.48	2744.76	2548.7	363.24	1282.08	1849.3	2598.79	2768.25	2366.58	3004.04	450.56	3317.1	1183.5	405.87	783.99	3512.73	
3401.01	666.13	3963.13	578.58	1759.79	462.01	3352.07	2129.24	1547.78	2135.71	591.53	3334.72	995.6	2830.39	3147.21	3240.1	2740.04	1097.66	1134.01	3128.96	3424.0	1460.15	3340.34	1037.35	2427.32	3598.09	1025.46	3593.24	912.49	1354.96	1618.63	3406.81	1750.28	360.63	2956.24	3634.49	210.28	1962.23	1208.78	2774.95	1140.32	1700.26	1162.98	2787.24	2540.54	3946.6	3576.46	1751.01	2913.28	2484.19	3747.16	2773.73	392.76	2432.91	725.44	3120.22	1888.77	3314.28	3666.71	2237.02	3068.98	3065.81	3176.16	3340.37	2003.75	1320.44	1038.45	2062.53	3729.35	352.93	3095.04	2592.72	3225.79	3401.27	1067.34	3349.57		375.43	3495.53	2014.11	3155.17	811.83	3327.14	2786.73	136.08	1277.41	1302.57	2986.52	3075.54	1641.51	873.61	802.55	1027.26	1108.95	3525.65	202.94	2181.28	3733.06	2577.55	799.56	
3390.83	1041.01	3892.87	946.51	1710.52	552.8	3357.55	2091.35	1708.78	2244.24	966.96	3364.87	1142.91	2745.13	3253.56	3157.4	2800.78	736.48	844.42	3236.85	3426.69	1268.06	3430.3	664.12	2454.59	3492.03	1325.42	3691.5	539.14	1335.32	1679.49	3446.56	1593.38	338.46	2984.31	3706.88	387.25	1788.91	1022.37	2802.24	1409.86	1645.13	911.18	2688.14	2582.48	3869.3	3521.01	1663.25	3003.25	2606.23	3751.47	2695.19	105.02	2475.63	683.9	3214.89	1972.81	3366.17	3724.74	2382.46	2965.79	3134.87	3216.78	3413.38	2010.63	1364.73	1365.7	1890.75	3712.13	606.03	2988.02	2466.95	3149.39	3399.25	1304.41	3372.15	375.43		3390.87	2103.03	3031.57	1125.18	3298.26	2848.17	496.33	1011.84	1582.11	3010.25	2953.86	1572.35	782.37	1078.51	1005.7	795.93	3591.84	576.09	2240.64	3767.51	2623.52	426.71	
872.21	3727.11	596.39	3587.09	1752.04	3043.43	1010.0	1422.45	2477.37	2002.26	3728.82	1229.3	2710.79	677.1	1881.63	316.41	1520.7	3057.78	2690.86	1892.27	991.55	2156.87	1771.12	3214.25	1434.58	102.88	3222.86	1924.56	3383.85	2163.0	2084.61	1326.52	1811.47	3150.69	1231.46	1693.7	3286.6	1649.07	2382.09	1276.41	3064.66	1805.01	2558.94	708.31	1461.15	540.83	480.78	1744.62	1724.69	2001.69	1096.25	743.34	3288.03	1514.42	2770.84	1775.19	1994.92	1421.58	1569.57	2197.93	426.69	1552.14	1312.12	1616.6	1641.03	2275.43	3380.62	1553.12	889.52	3240.75	402.85	931.49	362.77	946.22	2941.12	1163.03	3495.53	3390.87		1952.33	390.66	3293.37	705.02	1516.06	3468.4	2508.18	3105.79	1191.88	455.67	1855.96	2631.27	3145.23	2474.49	2791.18	1599.51	3531.2	1727.39	1372.43	1470.89	3388.28	
1513.25	1980.63	2228.0	1862.86	768.76	1577.04	1426.62	707.61	570.81	174.93	2009.58	1359.75	1025.69	1330.46	1151.3	1637.93	737.01	2219.76	1857.57	1135.09	1501.61	1447.66	1329.95	2322.89	534.81	2046.72	1370.37	1588.86	2393.38	865.38	434.9	1416.15	1280.58	1771.77	1000.27	1620.45	1820.01	1394.58	1469.79	833.44	1193.13	811.38	1710.38	1370.29	582.89	2238.69	1820.29	950.27	902.19	531.55	1808.2	1256.88	2004.93	486.38	1432.94	1112.54	131.06	1311.52	1657.04	427.66	1597.23	1053.43	1189.04	1326.45	450.87	747.89	1517.0	1412.88	1842.04	1673.88	1636.4	1389.54	1598.09	1491.75	1114.77	1387.55	2014.11	2103.03	1952.33		1766.81	1502.94	1502.21	782.08	1928.85	1762.81	1191.38	1038.54	1695.84	890.52	1391.81	1381.91	1134.34	1954.93	1512.93	1956.64	229.65	1744.03	606.61	2333.59	
1040.55	3426.4	980.49	3283.7	1441.66	2710.09	1152.17	1152.51	2249.94	1846.92	3422.33	1353.65	2420.71	437.32	1930.81	371.73	1478.68	2674.01	2311.55	1937.32	1158.65	1783.68	1865.83	2831.24	1291.61	480.67	2958.09	2059.61	3003.9	1847.24	1827.61	1464.52	1442.19	2804.67	1241.15	1855.98	2948.04	1269.34	2015.26	1229.22	2809.26	1487.87	2183.01	408.1	1357.92	929.25	769.23	1409.18	1728.05	1916.34	1346.75	510.6	2929.89	1385.15	2429.88	1822.89	1786.48	1529.99	1749.81	2071.13	190.22	1593.78	1388.2	1720.34	1398.28	1982.5	3116.92	1171.44	1163.29	2916.58	151.56	564.93	420.43	1109.16	2674.63	1295.46	3155.17	3031.57	390.66	1766.81		3009.92	853.81	1486.34	3136.09	2127.69	2867.66	1210.07	80.53	1528.41	2284.45	2858.41	2145.03	2410.47	1746.02	3202.83	1555.5	1587.29	1379.78	3011.77	
3004.24	480.46	3671.07	381.27	1575.34	688.79	2926.09	1871.16	944.24	1575.18	520.81	2861.66	590.81	2617.96	2542.54	3000.78	2233.49	1713.36	1574.21	2522.24	3000.92	1635.65	2758.31	1710.04	2005.78	3395.12	218.05	2990.9	1642.49	1192.91	1219.86	2913.22	1800.84	860.02	2502.34	3075.36	739.54	2021.0	1428.85	2331.59	370.37	1538.47	1521.88	2607.74	2081.84	3669.89	3265.75	1651.24	2345.04	1877.17	3310.68	2550.18	1083.15	1979.83	899.18	2536.47	1400.96	2801.11	3132.21	1601.32	2882.57	2529.71	2688.95	2788.06	1664.36	1028.23	246.52	2106.5	3335.63	523.75	2915.78	2485.56	2973.52	2988.28	389.17	2890.47	811.83	1125.18	3293.37	1502.94	3009.92		2970.98	2276.58	677.5	1641.19	506.48	2539.7	2929.92	1520.6	1042.24	154.9	987.86	1602.49	2980.24	642.93	1714.42	3239.86	2108.57	1535.79	
186.94	3435.94	735.15	3306.13	1587.76	2865.15	308.23	1207.11	2069.03	1499.91	3452.71	525.12	2425.02	699.81	1184.79	485.47	905.12	3116.39	2727.2	1196.84	305.13	2182.15	1066.11	3261.98	971.7	753.02	2860.83	1226.83	3403.44	1976.05	1760.14	626.51	1842.57	3012.34	586.6	1008.26	3117.8	1752.15	2362.03	694.67	2687.85	1653.48	2578.98	811.54	932.03	758.21	339.82	1654.1	1055.88	1405.76	537.01	705.27	3193.24	1017.81	2628.49	1080.1	1581.73	716.59	896.91	1644.05	701.09	863.93	613.64	911.63	1331.84	2020.19	3011.95	1678.68	422.98	3027.41	724.61	1094.7	433.79	255.88	2591.87	459.98	3327.14	3298.26	705.02	1502.21	853.81	2970.98		887.39	3273.9	2560.31	2693.59	542.46	851.53	1729.45	2515.89	2835.26	2308.6	2833.83	904.9	3322.59	1274.75	738.63	923.01	3384.41	
828.07	2756.29	1612.21	2641.85	1266.87	2340.47	708.15	958.98	1333.4	705.82	2788.14	592.44	1805.54	1096.07	532.02	1214.71	47.43	2863.02	2478.53	527.88	780.33	1985.76	617.22	2985.01	447.46	1589.54	2129.81	886.62	3082.94	1537.87	1172.74	636.64	1715.46	2525.31	300.89	859.95	2588.19	1735.06	2082.79	258.38	1949.1	1332.08	2324.91	1191.82	292.7	1642.26	1227.15	1414.97	264.7	522.69	1057.23	1038.51	2746.78	387.42	2166.38	442.83	900.88	529.64	880.22	782.21	1296.13	289.92	415.25	568.7	883.76	1484.37	2268.58	1706.58	1131.56	2451.3	1335.07	1367.17	1161.24	785.07	1887.41	631.75	2786.73	2848.17	1516.06	782.08	1486.34	2276.58	887.39		2706.26	2348.67	1919.2	345.25	1440.02	1422.84	2098.31	2160.74	1850.36	2583.23	743.68	2736.69	608.33	963.62	244.88	3036.35	
3341.34	549.56	3922.54	450.25	1722.37	426.0	3287.43	2084.54	1444.54	2043.89	480.69	3262.28	904.09	2798.49	3052.56	3205.79	2659.94	1198.28	1198.3	3033.93	3360.07	1479.59	3249.93	1149.32	2359.04	3571.19	892.33	3499.97	1035.46	1312.86	1545.47	3331.21	1752.39	393.21	2885.56	3548.57	210.28	1968.63	1230.66	2705.16	1012.26	1665.57	1211.22	2760.52	2467.07	3908.52	3531.6	1727.42	2823.92	2387.01	3681.96	2739.66	495.29	2359.68	713.82	3028.95	1805.84	3235.18	3584.98	2134.27	3042.64	2982.18	3100.89	3254.89	1944.8	1256.88	902.5	2067.52	3671.2	255.02	3070.01	2576.76	3189.27	3338.93	947.53	3279.48	136.08	496.33	3468.4	1928.85	3136.09	677.5	3273.9	2706.26		1329.2	1171.91	2917.12	3056.01	1612.55	871.58	675.69	993.91	1183.91	3441.77	90.38	2104.14	3658.38	2502.64	923.01	
2688.9	1824.72	3057.0	1687.66	1081.81	992.7	2691.74	1424.13	1647.28	1935.82	1776.6	2755.53	1240.97	1918.81	2842.55	2319.08	2303.36	557.85	185.92	2830.99	2751.53	379.59	2965.65	709.46	1904.86	2604.86	1751.69	3235.2	876.21	910.89	1352.77	2855.98	719.76	936.15	2391.9	3183.9	1120.4	859.13	299.84	2220.97	1727.0	1016.83	121.46	1838.35	2056.76	3021.73	2721.82	945.5	2565.83	2290.73	3067.19	1884.59	929.25	1962.85	742.02	2775.31	1642.39	2809.02	3165.61	2158.43	2097.56	2634.16	2640.39	2906.26	1468.46	1099.86	1870.04	956.26	2983.23	1227.42	2112.46	1579.46	2322.98	2714.84	1562.39	2744.76	1277.41	1011.84	2508.18	1762.81	2127.69	1641.19	2560.31	2348.67	1329.2		1890.15	2405.75	2055.16	926.03	608.67	1511.0	777.28	283.01	3058.69	1418.02	1800.16	3150.55	2104.13	889.33	
2699.71	936.28	3417.68	871.15	1505.05	1073.35	2604.76	1717.02	630.7	1216.85	995.84	2511.64	654.55	2447.69	2116.03	2798.21	1880.21	2080.95	1867.54	2094.83	2679.57	1783.89	2341.87	2105.63	1724.19	3204.28	290.02	2559.0	2069.33	1204.38	1043.59	2548.94	1857.38	1278.31	2175.23	2667.73	1196.93	2062.54	1627.87	2018.09	176.08	1488.87	1780.59	2459.57	1769.16	3426.14	3009.66	1628.82	1946.24	1466.72	2974.17	2375.7	1523.6	1676.87	1185.36	2123.14	1120.32	2426.86	2738.52	1181.42	2718.41	2147.16	2334.13	2389.42	1471.28	985.84	373.6	2132.17	3025.38	979.22	2755.02	2390.68	2763.47	2673.72	328.47	2548.7	1302.57	1582.11	3105.79	1191.38	2867.66	506.48	2693.59	1919.2	1171.91	1890.15		2216.07	2790.32	1501.32	1286.8	505.1	1133.16	1919.0	2582.41	1145.68	1419.42	2869.58	1787.19	1969.36	
491.63	3015.35	1268.01	2893.79	1342.95	2529.99	388.96	981.66	1607.96	1001.36	3040.88	356.18	2031.36	868.26	721.28	903.33	366.0	2943.6	2552.77	727.33	463.91	2029.94	688.08	3076.4	559.36	1259.39	2408.32	926.34	3193.03	1676.63	1372.05	450.44	1723.73	2700.36	44.55	800.9	2781.96	1698.75	2163.71	212.02	2230.08	1411.17	2399.23	977.78	458.18	1297.15	882.07	1460.6	533.1	866.22	771.88	825.65	2906.53	562.54	2326.91	613.58	1139.78	417.35	762.53	1115.43	1022.86	384.78	242.71	566.68	1000.2	1666.7	2553.2	1651.24	810.05	2664.01	1059.32	1202.79	848.01	458.33	2152.51	363.24	2986.52	3010.25	1191.88	1038.54	1210.07	2539.7	542.46	345.25	2917.12	2405.75	2216.07		1175.01	1498.75	2238.64	2414.38	2004.56	2659.59	673.46	2955.53	826.9	759.16	431.98	3157.42	
1038.32	3345.93	1036.4	3203.2	1361.2	2630.01	1142.63	1074.34	2173.88	1779.53	3341.81	1337.97	2340.57	370.52	1896.26	382.43	1430.28	2603.17	2238.56	1901.96	1154.3	1708.51	1840.39	2760.0	1228.16	550.0	2878.95	2041.48	2931.26	1766.71	1749.51	1450.62	1365.87	2725.42	1204.12	1844.59	2868.27	1196.22	1938.64	1181.95	2730.73	1407.35	2108.78	331.23	1300.17	988.56	799.22	1328.96	1686.1	1858.76	1359.02	442.74	2852.0	1323.2	2350.19	1788.59	1712.87	1509.45	1742.94	2007.04	155.77	1559.7	1362.43	1697.54	1321.97	1902.36	3037.81	1099.18	1183.08	2836.21	127.02	486.9	424.61	1104.65	2595.48	1282.08	3075.54	2953.86	455.67	1695.84	80.53	2929.92	851.53	1440.02	3056.01	2055.16	2790.32	1175.01		1447.98	2205.17	2778.31	2064.73	2338.08	1731.89	3122.6	1486.81	1589.28	1323.83	2937.86	
1832.26	1907.98	2327.37	1763.4	157.06	1187.49	1813.71	529.14	1000.08	1064.82	1899.01	1853.35	934.1	1188.93	1919.02	1599.27	1377.42	1447.63	1059.0	1908.04	1879.05	572.53	2039.68	1577.91	980.52	1958.72	1511.26	2309.26	1696.59	328.32	565.39	1948.47	406.97	1303.68	1481.01	2263.29	1431.9	576.39	666.01	1305.33	1394.57	90.8	905.05	1147.98	1131.31	2307.93	1949.68	131.14	1641.3	1397.85	2202.02	1133.16	1467.42	1036.83	919.8	1849.92	789.26	1892.62	2251.74	1313.27	1430.09	1709.09	1727.3	1982.6	543.3	517.94	1667.19	634.74	2147.14	1388.5	1457.64	978.62	1586.55	1847.42	1236.22	1849.3	1641.51	1572.35	1855.96	890.52	1528.41	1520.6	1729.45	1422.84	1612.55	926.03	1501.32	1498.75	1447.98		792.05	1365.86	618.73	1164.94	2139.14	1676.52	885.95	2253.98	1178.5	1666.52	
2609.51	1285.95	3117.99	1141.62	928.17	458.76	2579.11	1308.99	1126.94	1550.17	1252.19	2594.44	648.06	1974.32	2536.48	2386.25	2050.93	867.44	585.26	2521.46	2647.5	624.57	2696.64	946.18	1688.04	2733.4	1143.48	2962.69	1001.81	563.32	956.97	2680.08	880.88	520.25	2214.62	2957.98	671.0	1097.31	392.5	2033.19	1120.79	863.01	495.0	1924.12	1822.75	3096.9	2741.73	889.78	2274.1	1917.42	2972.17	1921.51	677.36	1717.51	163.38	2487.41	1261.23	2606.39	2966.69	1731.21	2204.67	2387.69	2451.78	2666.8	1238.88	647.01	1265.01	1195.97	2929.99	695.24	2229.26	1720.8	2375.74	2619.17	958.34	2598.79	873.61	782.37	2631.27	1391.81	2284.45	1042.24	2515.89	2098.31	871.58	608.67	1286.8	2238.64	2205.17	792.05		906.34	258.21	650.13	2839.49	949.05	1497.97	2997.55	1865.81	943.19	
2873.48	601.88	3530.35	481.13	1422.09	592.77	2799.04	1722.77	836.32	1465.05	627.69	2741.59	437.91	2469.16	2448.61	2854.56	2116.77	1618.8	1454.37	2428.77	2873.67	1489.11	2659.49	1627.65	1874.29	3247.18	258.31	2897.74	1576.36	1038.08	1078.66	2796.81	1647.49	784.95	2377.95	2972.26	692.35	1867.31	1288.14	2204.87	338.02	1384.46	1393.14	2457.13	1956.2	3527.81	3126.02	1496.45	2241.49	1780.77	3186.16	2401.89	1023.9	1852.73	770.92	2437.32	1274.63	2687.9	3024.1	1511.23	2732.83	2420.01	2570.69	2682.65	1521.23	876.01	359.05	1952.33	3205.31	474.22	2765.73	2331.99	2828.19	2859.61	288.86	2768.25	802.55	1078.51	3145.23	1381.91	2858.41	154.9	2835.26	2160.74	675.69	1511.0	505.1	2414.38	2778.31	1365.86	906.34		837.15	1489.48	2873.95	661.37	1587.61	3124.28	1984.71	1473.47	
2392.37	1317.77	2935.9	1171.43	732.55	569.5	2354.3	1104.72	887.48	1292.01	1299.85	2359.2	478.83	1805.33	2280.85	2213.88	1802.92	1115.72	800.19	2265.59	2424.18	660.15	2444.19	1201.69	1449.24	2577.29	1041.51	2709.36	1259.86	333.02	699.74	2441.56	819.75	704.01	1978.67	2710.3	817.02	1041.65	497.36	1796.63	981.14	673.32	681.18	1766.67	1579.32	2919.44	2550.44	736.01	2020.31	1659.27	2748.89	1747.49	902.14	1473.06	322.9	2233.47	1003.61	2363.51	2723.05	1474.49	2048.79	2138.98	2212.12	2418.09	1005.22	388.8	1181.63	1132.14	2717.06	772.35	2076.36	1589.45	2198.84	2398.01	812.15	2366.58	1027.26	1005.7	2474.49	1134.34	2145.03	987.86	2308.6	1850.36	993.91	777.28	1133.16	2004.56	2064.73	618.73	258.21	837.15		879.48	2593.12	1058.11	1246.57	2761.92	1621.28	1199.44	
2958.46	1712.39	3339.19	1584.88	1322.0	918.68	2956.45	1679.42	1766.76	2124.15	1654.62	3012.06	1295.37	2199.15	3063.88	2600.82	2537.11	284.53	107.22	3051.2	3017.76	652.48	3198.17	429.08	2144.44	2887.82	1742.81	3467.68	593.63	1089.72	1529.43	3109.99	998.3	804.49	2643.62	3428.11	985.18	1142.13	500.45	2469.51	1747.58	1254.83	260.38	2120.07	2293.46	3304.32	3001.55	1201.08	2790.19	2486.39	3335.61	2163.55	729.8	2195.89	733.73	3001.77	1829.29	3057.24	3415.85	2331.15	2380.31	2871.24	2890.94	3146.24	1699.49	1246.86	1843.13	1239.05	3256.8	1133.36	2395.37	1862.35	2604.04	2982.2	1592.08	3004.04	1108.95	795.93	2791.18	1954.93	2410.47	1602.49	2833.83	2583.23	1183.91	283.01	1919.0	2659.59	2338.08	1164.94	650.13	1489.48	879.48		3304.07	1274.29	2015.66	3409.84	2340.11	612.46	
727.77	3460.5	1408.4	3353.25	1982.08	3082.32	597.38	1638.86	2038.18	1409.36	3498.04	394.42	2538.41	1487.34	516.11	1386.2	791.06	3586.39	3198.1	537.82	607.98	2686.92	283.82	3713.32	1161.6	1632.18	2817.57	326.01	3818.16	2277.5	1915.61	281.51	2390.47	3268.66	676.94	127.48	3328.89	2371.87	2804.54	838.74	2635.98	2049.3	3044.15	1602.78	1018.4	1467.76	1151.67	2114.29	637.04	1115.73	634.24	1458.98	3490.4	1122.32	2909.88	470.55	1636.93	256.11	158.75	1401.49	1576.48	459.84	430.76	193.04	1612.19	2227.94	2946.33	2324.63	826.36	3186.79	1606.14	1852.6	1332.25	653.98	2593.0	450.56	3525.65	3591.84	1599.51	1512.93	1746.02	2980.24	904.9	743.68	3441.77	3058.69	2582.41	673.46	1731.89	2139.14	2839.49	2873.95	2593.12	3304.07		3468.84	1351.72	366.07	974.2	3774.63	
3385.97	465.24	3978.17	376.42	1781.9	496.15	3328.82	2139.49	1457.15	2065.84	393.58	3298.24	931.19	2859.37	3070.65	3265.14	2690.72	1286.23	1288.36	3051.68	3401.88	1561.79	3271.64	1234.0	2398.88	3634.05	860.57	3518.98	1114.51	1371.13	1583.61	3364.79	1828.85	481.87	2923.11	3573.89	297.8	2046.28	1313.9	2743.51	992.58	1726.63	1299.66	2823.98	2503.07	3965.51	3585.05	1793.65	2846.92	2403.48	3722.7	2799.49	581.81	2396.01	789.07	3050.1	1835.82	3266.18	3613.68	2145.65	3106.07	3009.82	3134.9	3280.78	1991.52	1302.75	856.0	2144.59	3716.58	295.26	3134.05	2645.27	3247.48	3381.81	942.5	3317.1	202.94	576.09	3531.2	1956.64	3202.83	642.93	3322.59	2736.69	90.38	1418.02	1145.68	2955.53	3122.6	1676.52	949.05	661.37	1058.11	1274.29	3468.84		2137.99	3692.43	2537.55	1001.68	
1292.07	2188.86	1998.86	2066.89	741.46	1732.77	1211.82	568.86	794.67	296.38	2213.98	1161.27	1209.06	1118.18	1048.87	1412.16	561.1	2289.87	1913.79	1035.78	1286.59	1458.22	1198.78	2403.98	305.29	1820.81	1590.7	1465.58	2491.13	943.7	564.62	1227.11	1241.96	1917.01	791.14	1466.25	1981.31	1321.98	1518.72	617.38	1415.39	797.75	1762.17	1166.41	368.88	2009.15	1591.03	914.69	778.84	528.16	1598.78	1044.94	2139.65	265.41	1559.96	992.03	313.46	1133.22	1487.93	547.73	1381.53	894.24	996.97	1172.94	359.56	876.27	1739.62	1324.29	1622.5	1849.58	1421.15	1213.95	1371.3	1274.04	1328.71	1183.5	2181.28	2240.64	1727.39	229.65	1555.5	1714.42	1274.75	608.33	2104.14	1800.16	1419.42	826.9	1486.81	885.95	1497.97	1587.61	1246.57	2015.66	1351.72	2137.99		1554.53	400.18	2439.72	
553.23	3719.76	1086.35	3605.41	2099.12	3279.85	481.59	1730.7	2296.11	1666.29	3751.74	403.11	2762.59	1413.28	871.64	1215.74	1007.56	3694.29	3302.73	892.6	444.96	2772.21	647.24	3829.75	1313.12	1386.35	3089.8	647.39	3950.0	2435.15	2114.51	328.01	2453.19	3454.74	783.31	387.23	3530.65	2401.47	2916.91	965.29	2908.56	2167.43	3149.79	1528.98	1192.56	1152.16	896.87	2208.78	937.41	1414.48	301.4	1402.66	3664.05	1300.22	3083.76	809.67	1859.0	442.76	242.0	1699.16	1439.68	724.19	557.56	525.58	1758.79	2416.82	3225.58	2340.87	515.05	3403.98	1462.57	1802.63	1167.39	493.33	2850.72	405.87	3733.06	3767.51	1372.43	1744.03	1587.29	3239.86	738.63	963.62	3658.38	3150.55	2869.58	759.16	1589.28	2253.98	2997.55	3124.28	2761.92	3409.84	366.07	3692.43	1554.53		1155.84	3915.8	
912.8	2585.04	1657.81	2464.83	1022.32	2125.85	820.48	718.17	1176.09	578.52	2611.83	761.11	1609.18	961.01	765.4	1157.12	200.94	2620.51	2235.15	758.63	895.48	1740.88	862.07	2743.9	203.73	1554.77	1976.39	1131.4	2844.92	1303.41	958.92	829.27	1472.66	2304.96	393.8	1094.46	2375.89	1498.95	1839.67	231.67	1798.32	1087.78	2081.42	1042.82	48.08	1677.1	1255.43	1170.23	487.59	537.78	1202.12	895.39	2521.21	148.31	1940.12	682.97	710.52	742.65	1101.77	732.36	1191.86	531.13	598.63	807.33	641.35	1264.29	2121.63	1474.91	1238.53	2248.36	1232.03	1182.44	1108.23	887.19	1720.97	783.99	2577.55	2623.52	1470.89	606.61	1379.78	2108.57	923.01	244.88	2502.64	2104.13	1787.19	431.98	1323.83	1178.5	1865.81	1984.71	1621.28	2340.11	974.2	2537.55	400.18	1155.84		2800.51	
3496.16	1465.63	3924.49	1373.22	1818.71	900.91	3480.22	2195.46	2011.93	2489.05	1390.01	3513.45	1460.18	2777.14	3479.66	3184.51	2989.09	415.74	703.48	3464.6	3545.44	1232.37	3638.48	284.61	2616.5	3486.33	1727.24	3905.1	113.0	1498.55	1899.16	3604.05	1580.06	691.07	3136.4	3894.7	798.01	1742.71	1024.29	2956.76	1794.16	1750.51	829.33	2705.05	2756.28	3893.01	3574.18	1730.81	3216.87	2856.12	3867.98	2736.16	452.64	2652.58	913.48	3430.22	2202.73	3537.12	3897.84	2657.05	2972.02	3326.17	3378.22	3605.02	2164.86	1586.31	1779.75	1841.78	3805.68	1012.08	2989.21	2456.98	3184.01	3513.3	1672.28	3512.73	799.56	426.71	3388.28	2333.59	3011.77	1535.79	3384.41	3036.35	923.01	889.33	1969.36	3157.42	2937.86	1666.52	943.19	1473.47	1199.44	612.46	3774.63	1001.68	2439.72	3915.8	2800.51		
