n: 136
deposito: 85
clusters: 28
factor: 1

xcoord[n]:
5300.0
7275.0
12450.0
14425.0
4118.0
4743.0
5935.0
6560.0
11268.0
11893.0
13085.0
13710.0
14425.0
12450.0
10250.0
7275.0
5300.0
3100.0
5300.0
7275.0
12450.0
14425.0
13710.0
13085.0
11893.0
11268.0
6560.0
5935.0
4743.0
4118.0
5300.0
7275.0
12450.0
14425.0
14425.0
12450.0
7275.0
5300.0
4118.0
4743.0
5935.0
6560.0
11268.0
11893.0
13085.0
13710.0
14425.0
12450.0
10250.0
7275.0
5300.0
3100.0
5300.0
7275.0
12450.0
14425.0
13710.0
13085.0
11893.0
11268.0
6560.0
5935.0
4743.0
4118.0
5300.0
7275.0
12450.0
14425.0
14425.0
12450.0
7275.0
5300.0
4118.0
4743.0
5935.0
6560.0
11268.0
11893.0
13085.0
13710.0
14425.0
12450.0
7275.0
5300.0
3100.0
5300.0
7275.0
10250.0
12450.0
14425.0
13710.0
13085.0
11893.0
11268.0
6560.0
5935.0
4743.0
4118.0
5300.0
7275.0
12450.0
14425.0
14425.0
12450.0
7275.0
5300.0
4118.0
4743.0
5935.0
6560.0
11268.0
11893.0
13085.0
13710.0
14425.0
12450.0
7275.0
5300.0
3100.0
5300.0
7275.0
10250.0
12450.0
14425.0
13710.0
13085.0
11893.0
11268.0
6560.0
5935.0
4743.0
4118.0
14425.0
12450.0
7275.0
5300.0

ycoord[n]:
1965.0
1965.0
1965.0
1965.0
2275.0
2275.0
2275.0
2275.0
2275.0
2275.0
2275.0
2275.0
2590.0
2590.0
2675.0
2590.0
2590.0
2675.0
2760.0
2760.0
2760.0
2760.0
3075.0
3075.0
3075.0
3075.0
3075.0
3075.0
3075.0
3075.0
3385.0
3385.0
3385.0
3385.0
4515.0
4515.0
4515.0
4515.0
4825.0
4825.0
4825.0
4825.0
4825.0
4825.0
4825.0
4825.0
5140.0
5140.0
5225.0
5140.0
5140.0
5225.0
5310.0
5310.0
5310.0
5310.0
5625.0
5625.0
5625.0
5625.0
5625.0
5625.0
5625.0
5625.0
5935.0
5935.0
5935.0
5935.0
7065.0
7065.0
7065.0
7065.0
7375.0
7375.0
7375.0
7375.0
7375.0
7375.0
7375.0
7375.0
7690.0
7690.0
7690.0
7690.0
7775.0
7860.0
7860.0
7775.0
7860.0
7860.0
8175.0
8175.0
8175.0
8175.0
8175.0
8175.0
8175.0
8175.0
8485.0
8485.0
8485.0
8485.0
9615.0
9615.0
9615.0
9615.0
9925.0
9925.0
9925.0
9925.0
9925.0
9925.0
9925.0
9925.0
10240.0
10240.0
10240.0
10240.0
10325.0
10410.0
10410.0
10325.0
10410.0
10410.0
10725.0
10725.0
10725.0
10725.0
10725.0
10725.0
10725.0
10725.0
11035.0
11035.0
11035.0
11035.0

color[n]:
#453d6
#864f02
#fb092f
#d14fbd
#85848b
#453d6
#453d6
#864f02
#2b6176
#fb092f
#fb092f
#d14fbd
#d14fbd
#fb092f
#2b6176
#864f02
#453d6
#85848b
#453d6
#d57c35
#fb092f
#d14fbd
#d14fbd
#fb092f
#fb092f
#2b6176
#d57c35
#453d6
#453d6
#85848b
#453d6
#d57c35
#47ae67
#d14fbd
#47c664
#47ae67
#d57c35
#997119
#997119
#997119
#997119
#3aa5f4
#794b58
#47ae67
#47ae67
#47c664
#47c664
#47ae67
#794b58
#3aa5f4
#997119
#18a2ac
#997119
#3aa5f4
#8385b3
#47c664
#47c664
#8385b3
#8385b3
#794b58
#3aa5f4
#3aa5f4
#997119
#997119
#997119
#3aa5f4
#8385b3
#47c664
#8103c3
#3d77c8
#a655a5
#d9bf14
#d9bf14
#d9bf14
#4559d0
#a655a5
#3d77c8
#3d77c8
#3d77c8
#8103c3
#8103c3
#3d77c8
#a655a5
#d9bf14
#fe03c8
#4559d0
#a655a5
#3e417d
#3d77c8
#8103c3
#8103c3
#8103c3
#3d77c8
#3d77c8
#4559d0
#4559d0
#d9bf14
#d9bf14
#4559d0
#a655a5
#243fc4
#8103c3
#497e31
#243fc4
#29df33
#f69f69
#1822fc
#f69f69
#f69f69
#29df33
#334e51
#243fc4
#243fc4
#497e31
#497e31
#243fc4
#29df33
#f69f69
#1822fc
#f69f69
#29df33
#334e51
#243fc4
#a90c9c
#a90c9c
#243fc4
#243fc4
#334e51
#29df33
#f69f69
#f69f69
#1822fc
#a90c9c
#243fc4
#29df33
#f69f69

Np[1]: 124 125 133  ;
Np[2]: 5 18 30  ;
Np[3]: 3 10 11 14 21 24 25  ;
Np[4]: 106 108 109 118 120 130 131 136  ;
Np[5]: 42 50 54 61 62 66  ;
Np[6]: 70 77 78 79 82 89 93 94  ;
Np[7]: 2 8 16  ;
Np[8]: 85  ;
Np[9]: 35 46 47 56 57 68  ;
Np[10]: 111 122 128  ;
Np[11]: 38 39 40 41 51 53 63 64 65  ;
Np[12]: 43 49 60  ;
Np[13]: 75 86 95 96 99  ;
Np[14]: 69 80 81 90 91 92 102  ;
Np[15]: 9 15 26  ;
Np[16]: 107 119 132  ;
Np[17]: 101 104 112 113 116 123 126 127 134  ;
Np[18]: 1 6 7 17 19 28 29 31  ;
Np[19]: 4 12 13 22 23 34  ;
Np[20]: 105 110 117 121 129 135  ;
Np[21]: 33 36 44 45 48  ;
Np[22]: 52  ;
Np[23]: 88  ;
Np[24]: 72 73 74 84 97 98  ;
Np[25]: 71 76 83 87 100  ;
Np[26]: 20 27 32 37  ;
Np[27]: 55 58 59 67  ;
Np[28]: 103 114 115  ;


c[n,n]:
	1975.0	7150.0	9125.0	1221.98	637.46	706.63	1297.57	5976.05	6600.28	7791.17	8415.71	9146.38	7177.26	5000.66	2071.53	625.0	2311.73	795.0	2129.0	7194.06	9159.57	8482.94	7863.73	6685.79	6070.35	1679.2	1278.8	1241.91	1621.49	1420.0	2432.49	7289.64	9234.83	9474.6	7591.11	3225.39	2550.0	3094.63	2913.73	2929.65	3125.25	6617.9	7186.6	8293.72	8883.0	9661.59	7823.24	5927.07	3739.15	3175.0	3932.89	3345.0	3884.54	7893.76	9718.78	9171.9	8602.43	7540.77	7000.9	3870.81	3714.68	3702.14	3846.13	3970.0	4434.13	8178.23	9951.21	10453.5	8782.51	5469.06	5100.0	5537.62	5438.6	5447.14	5554.79	8055.13	8528.53	9480.21	9999.81	10772.24	9159.59	6056.09	5725.0	6212.58	5895.0	6217.05	7632.73	9266.8	10863.55	10454.29	9958.43	9057.14	8612.85	6336.54	6242.38	6234.93	6321.49	6520.0	6812.56	9676.41	11214.99	11907.48	10471.15	7900.83	7650.0	8047.28	7979.46	7985.29	8059.11	9948.8	10335.82	11134.08	11579.71	12318.33	10936.09	8507.42	8275.0	8644.63	8445.0	8672.87	9715.56	11065.28	12433.17	12143.55	11719.38	10963.82	10599.75	8850.15	8782.98	8777.69	8839.38	12865.87	11549.35	9282.54	9070.0	
1975.0		5175.0	7150.0	3172.18	2550.91	1375.39	779.31	4005.02	4628.39	5818.26	6442.46	7177.26	5212.6	3058.55	625.0	2071.53	4234.94	2129.0	795.0	5235.71	7194.06	6530.03	5915.08	4749.53	4144.41	1320.35	1740.03	2764.62	3346.45	2432.49	1420.0	5366.29	7289.64	7591.11	5769.15	2550.0	3225.39	4259.84	3819.77	3158.35	2948.02	4911.58	5431.9	6475.78	7041.93	7823.24	6071.35	4413.41	3175.0	3739.15	5297.0	3884.54	3345.0	6161.95	7893.76	7403.03	6866.71	5892.5	5416.61	3729.19	3897.59	4450.46	4833.45	4434.13	3970.0	6522.39	8178.23	8782.51	7265.72	5100.0	5469.06	6263.76	5973.2	5573.48	5457.04	6724.0	7112.95	7938.78	8406.98	9159.59	7717.27	5725.0	6056.09	7154.49	6217.05	5895.0	6527.38	7844.21	9266.8	8942.78	8504.13	7738.86	7382.96	6251.03	6352.93	6706.35	6966.4	6812.56	6520.0	8324.12	9676.41	10471.15	9235.97	7650.0	7900.83	8563.19	8353.0	8072.0	7992.05	8905.37	9202.58	9854.83	10235.76	10936.09	9759.93	8275.0	8507.42	9344.53	8672.87	8445.0	8873.57	9904.48	11065.28	10869.54	10511.6	9902.7	9627.13	8789.13	8861.9	9118.59	9311.51	11549.35	10442.49	9070.0	9282.54	
7150.0	5175.0		1975.0	8337.76	7713.23	6522.37	5898.15	1221.98	637.46	706.63	1297.57	2071.53	625.0	2311.73	5212.6	7177.26	9376.92	7194.06	5235.71	795.0	2129.0	1679.2	1278.8	1241.91	1621.49	5993.68	6608.88	7786.52	8405.61	7289.64	5366.29	1420.0	2432.49	3225.39	2550.0	5769.15	7591.11	8809.19	8220.55	7115.11	6547.65	3094.63	2913.73	2929.65	3125.25	3739.15	3175.0	3932.89	6071.35	7823.24	9902.03	7893.76	6161.95	3345.0	3884.54	3870.81	3714.68	3702.14	3846.13	6934.53	7472.67	8531.91	9100.43	8178.23	6522.39	3970.0	4434.13	5469.06	5100.0	7265.72	8782.51	9934.3	9416.26	8468.37	7997.51	5537.62	5438.6	5447.14	5554.79	6056.09	5725.0	7717.27	9159.59	11008.12	9266.8	7844.21	6212.58	5895.0	6217.05	6336.54	6242.38	6234.93	6321.49	8558.98	9000.52	9897.57	10391.65	9676.41	8324.12	6520.0	6812.56	7900.83	7650.0	9235.97	10471.15	11523.19	11079.69	10286.24	9902.21	8047.28	7979.46	7985.29	8059.11	8507.42	8275.0	9759.93	10936.09	12542.41	11065.28	9904.48	8644.63	8445.0	8672.87	8850.15	8782.98	8777.69	8839.38	10556.03	10917.09	11667.71	12089.66	9282.54	9070.0	10442.49	11549.35	
9125.0	7150.0	1975.0		10311.66	9686.96	8495.66	7871.11	3172.18	2550.91	1375.39	779.31	625.0	2071.53	4234.94	7177.26	9146.38	11347.23	9159.57	7194.06	2129.0	795.0	1320.35	1740.03	2764.62	3346.45	7942.94	8562.25	9745.42	10366.6	9234.83	7289.64	2432.49	1420.0	2550.0	3225.39	7591.11	9474.6	10696.44	10095.58	8958.78	8368.86	4259.84	3819.77	3158.35	2948.02	3175.0	3739.15	5297.0	7823.24	9661.59	11784.87	9718.78	7893.76	3884.54	3345.0	3729.19	3897.59	4450.46	4833.45	8674.9	9245.31	10350.69	10937.54	9951.21	8178.23	4434.13	3970.0	5100.0	5469.06	8782.51	10453.5	11640.55	11090.95	10067.18	9546.01	6263.76	5973.2	5573.48	5457.04	5725.0	6056.09	9159.59	10772.24	12728.38	10863.55	9266.8	7154.49	6217.05	5895.0	6251.03	6352.93	6706.35	6966.4	10021.09	10518.75	11502.4	12033.22	11214.99	9676.41	6812.56	6520.0	7650.0	7900.83	10471.15	11907.48	13022.9	12534.06	11637.94	11190.17	8563.19	8353.0	8072.0	7992.05	8275.0	8507.42	10936.09	12318.33	14076.41	12433.17	11065.28	9344.53	8672.87	8445.0	8789.13	8861.9	9118.59	9311.51	11772.67	12199.09	13056.75	13526.71	9070.0	9282.54	11549.35	12865.87	
1221.98	3172.18	8337.76	10311.66		625.0	1817.0	2442.0	7150.0	7775.0	8967.0	9592.0	10311.81	8337.95	6145.03	3172.68	1223.25	1093.77	1277.63	3194.04	8346.1	10318.4	9625.3	9002.62	7816.05	7194.62	2569.7	1985.32	1015.2	800.0	1621.49	3346.45	8405.61	10366.6	10547.6	8627.85	3870.95	2532.73	2550.0	2625.48	3131.13	3530.7	7591.11	8182.49	9322.53	9925.17	10697.78	8810.81	6804.7	4263.2	3099.25	3120.71	3257.05	4379.25	8867.55	10744.56	10160.17	9572.33	8466.0	7895.89	4145.58	3811.04	3407.8	3350.0	3846.13	4833.45	9100.43	10937.54	11365.67	9610.74	5736.79	4933.68	5100.0	5138.15	5414.01	5654.5	8782.51	9298.42	10315.87	10863.54	11642.87	9937.02	6268.08	5542.5	5593.42	5708.71	6415.52	8237.2	10030.68	11722.9	11261.28	10733.92	9760.15	9269.98	6385.4	6173.45	5933.01	5900.0	6321.49	6966.4	10391.65	12033.22	12653.45	11103.96	7990.13	7434.56	7650.0	7675.49	7862.82	8030.31	10471.15	10907.48	11786.84	12269.02	13025.95	11526.64	8567.84	8052.23	8114.11	8220.42	8726.1	10119.48	11644.76	13130.59	12783.15	12321.1	11482.73	11069.1	8795.79	8643.15	8473.08	8450.0	13526.71	12089.66	9311.51	8839.38	
637.46	2550.91	7713.23	9686.96	625.0		1192.0	1817.0	6525.0	7150.0	8342.0	8967.0	9687.12	7713.43	5521.51	2551.52	639.9	1690.99	738.56	2578.03	7722.25	9694.14	9002.62	8380.27	7194.62	6573.86	1985.32	1435.57	800.0	1015.2	1241.91	2764.62	7786.52	9745.42	9937.74	8025.92	3380.62	2308.21	2625.48	2550.0	2814.85	3131.13	7005.58	7591.11	8723.04	9322.53	10097.0	8222.29	6247.36	3823.51	2918.64	3376.68	3085.69	3952.5	8283.06	10146.54	9572.33	8989.52	7895.89	7334.72	3811.04	3555.75	3350.0	3407.8	3702.14	4450.46	8531.91	10350.69	10802.09	9074.25	5418.04	4822.28	5138.15	5100.0	5237.45	5414.01	8281.64	8782.51	9777.47	10315.87	11093.39	9419.13	5977.73	5443.57	5740.16	5612.71	6132.15	7783.13	9517.88	11177.36	10733.92	10217.58	9269.98	8796.91	6173.45	6019.21	5900.0	5933.01	6234.93	6706.35	9897.57	11502.4	12149.76	10643.0	7764.45	7361.1	7675.49	7650.0	7742.31	7862.82	10054.76	10471.15	11318.63	11786.84	12537.24	11083.28	8357.77	7984.45	8215.96	8154.05	8519.93	9753.44	11206.07	12645.92	12321.1	11873.98	11069.1	10676.05	8643.15	8533.66	8450.0	8473.08	13056.75	11667.71	9118.59	8777.69	
706.63	1375.39	6522.37	8495.66	1817.0	1192.0		625.0	5333.0	5958.0	7150.0	7775.0	8495.84	6522.61	4333.5	1376.53	708.84	2863.08	799.03	1425.07	6533.03	8503.84	7816.05	7194.62	6011.47	5392.67	1015.2	800.0	1435.57	1985.32	1278.8	1740.03	6608.88	8562.25	8780.53	6889.33	2610.21	2328.27	3131.13	2814.85	2550.0	2625.48	5911.29	6480.76	7591.11	8182.49	8960.38	7117.12	5227.02	3162.88	2934.53	4091.42	3100.72	3317.65	7187.24	9016.17	8466.0	7895.89	6835.22	6297.89	3407.8	3350.0	3555.75	3811.04	3714.68	3897.59	7472.67	9245.31	9748.04	8086.37	4973.9	4831.91	5414.01	5237.45	5100.0	5138.15	7379.08	7842.69	8782.51	9298.42	10069.87	8471.57	5578.34	5452.11	6187.67	5620.98	5743.5	6990.65	8581.23	10162.3	9760.15	9269.98	8384.97	7953.04	5933.01	5900.0	6019.21	6173.45	6242.38	6352.93	9000.52	10518.75	11223.0	9814.32	7461.31	7367.42	7862.82	7742.31	7650.0	7675.49	9325.42	9696.4	10471.15	10907.48	11641.36	10290.11	8076.93	7990.27	8534.62	8159.75	8244.62	9133.55	10422.26	11758.33	11482.73	11069.1	10339.26	9992.17	8473.08	8450.0	8533.66	8643.15	12199.09	10917.09	8861.9	8782.98	
1297.57	779.31	5898.15	7871.11	2442.0	1817.0	625.0		4708.0	5333.0	6525.0	7150.0	7871.31	5898.42	3711.62	781.31	1298.78	3483.04	1350.12	863.97	5909.93	7879.94	7194.62	6573.86	5392.67	4775.49	800.0	1015.2	1985.32	2569.7	1679.2	1320.35	5993.68	7942.94	8177.76	6301.56	2351.35	2570.06	3530.7	3131.13	2625.48	2550.0	5354.23	5911.29	7005.58	7591.11	8370.57	6549.83	4724.26	2952.87	3129.83	4546.88	3286.16	3118.08	6625.96	8430.27	7895.89	7334.72	6297.89	5778.21	3350.0	3407.8	3811.04	4145.58	3870.81	3729.19	6934.53	8674.9	9208.82	7591.85	4843.07	4952.95	5654.5	5414.01	5138.15	5100.0	6940.84	7379.08	8281.64	8782.51	9548.85	8000.9	5462.0	5559.66	6497.82	5725.37	5630.58	6623.15	8116.92	9646.27	9269.98	8796.91	7953.04	7548.2	5900.0	5933.01	6173.45	6385.4	6336.54	6251.03	8558.98	10021.09	10757.97	9411.04	7374.74	7447.36	8030.31	7862.82	7675.49	7650.0	8982.64	9325.42	10054.76	10471.15	11193.72	9906.23	7997.03	8064.05	8762.08	8232.0	8166.36	8855.43	10043.42	11315.32	11069.1	10676.05	9992.17	9673.04	8450.0	8473.08	8643.15	8795.79	11772.67	10556.03	8789.13	8850.15	
5976.05	4005.02	1221.98	3172.18	7150.0	6525.0	5333.0	4708.0		625.0	1817.0	2442.0	3172.68	1223.25	1093.77	4005.41	5976.31	8177.79	5987.67	4022.35	1277.63	3194.04	2569.7	1985.32	1015.2	800.0	4775.49	5392.67	6573.86	7194.62	6070.35	4144.41	1621.49	3346.45	3870.95	2532.73	4578.39	6374.53	7591.11	7005.58	5911.29	5354.23	2550.0	2625.48	3131.13	3530.7	4263.2	3099.25	3120.71	4914.5	6620.06	8684.4	6695.39	5015.5	3257.05	4379.25	4145.58	3811.04	3407.8	3350.0	5778.21	6297.89	7334.72	7895.89	7000.9	5416.61	3846.13	4833.45	5736.79	4933.68	6236.04	7652.52	8782.51	8281.64	7379.08	6940.84	5100.0	5138.15	5414.01	5654.5	6268.08	5542.5	6728.02	8058.49	9847.14	8173.69	6865.59	5593.42	5708.71	6415.52	6385.4	6173.45	5933.01	5900.0	7548.2	7953.04	8796.91	9269.98	8612.85	7382.96	6321.49	6966.4	7990.13	7434.56	8355.82	9460.05	10471.15	10054.76	9325.42	8982.64	7650.0	7675.49	7862.82	8030.31	8567.84	8052.23	8909.84	9952.8	11468.16	10089.36	9062.13	8114.11	8220.42	8726.1	8795.79	8643.15	8473.08	8450.0	9673.04	9992.17	10676.05	11069.1	9311.51	8839.38	9627.13	10599.75	
6600.28	4628.39	637.46	2550.91	7775.0	7150.0	5958.0	5333.0	625.0		1192.0	1817.0	2551.52	639.9	1690.99	4628.73	6600.52	8802.09	6610.81	4643.4	738.56	2578.03	1985.32	1435.57	800.0	1015.2	5392.67	6011.47	7194.62	7816.05	6685.79	4749.53	1241.91	2764.62	3380.62	2308.21	5132.59	6963.13	8182.49	7591.11	6480.76	5911.29	2625.48	2550.0	2814.85	3131.13	3823.51	2918.64	3376.68	5434.53	7188.59	9274.66	7258.02	5526.04	3085.69	3952.5	3811.04	3555.75	3350.0	3407.8	6297.89	6835.22	7895.89	8466.0	7540.77	5892.5	3702.14	4450.46	5418.04	4822.28	6653.57	8149.34	9298.42	8782.51	7842.69	7379.08	5138.15	5100.0	5237.45	5414.01	5977.73	5443.57	7116.75	8531.7	10371.44	8640.59	7246.94	5740.16	5612.71	6132.15	6173.45	6019.21	5900.0	5933.01	7953.04	8384.97	9269.98	9760.15	9057.14	7738.86	6234.93	6706.35	7764.45	7361.1	8671.88	9866.27	10907.48	10471.15	9696.4	9325.42	7675.49	7650.0	7742.31	7862.82	8357.77	7984.45	9206.91	10339.67	11921.38	10471.19	9354.37	8215.96	8154.05	8519.93	8643.15	8533.66	8450.0	8473.08	9992.17	10339.26	11069.1	11482.73	9118.59	8777.69	9902.7	10963.82	
7791.17	5818.26	706.63	1375.39	8967.0	8342.0	7150.0	6525.0	1817.0	1192.0		625.0	1376.53	708.84	2863.08	5818.53	7791.37	9993.01	7800.09	5830.21	799.03	1425.07	1015.2	800.0	1435.57	1985.32	6573.86	7194.62	8380.27	9002.62	7863.73	5915.08	1278.8	1740.03	2610.21	2328.27	6226.85	8100.85	9322.53	8723.04	7591.11	7005.58	3131.13	2814.85	2550.0	2625.48	3162.88	2934.53	4091.42	6477.99	8295.45	10411.66	8355.68	6554.95	3100.72	3317.65	3407.8	3350.0	3555.75	3811.04	7334.72	7895.89	8989.52	9572.33	8602.43	6866.71	3714.68	3897.59	4973.9	4831.91	7529.95	9140.59	10315.87	9777.47	8782.51	8281.64	5414.01	5237.45	5100.0	5138.15	5578.34	5452.11	7942.19	9483.06	11399.57	9581.15	8059.05	6187.67	5620.98	5743.5	5933.01	5900.0	6019.21	6173.45	8796.91	9269.98	10217.58	10733.92	9958.43	8504.13	6242.38	6352.93	7461.31	7367.42	9361.18	10699.62	11786.84	11318.63	10471.15	10054.76	7862.82	7742.31	7650.0	7675.49	8076.93	7990.27	9858.87	11137.66	12825.86	11259.86	9996.72	8534.62	8159.75	8244.62	8473.08	8450.0	8533.66	8643.15	10676.05	11069.1	11873.98	12321.1	8861.9	8782.98	10511.6	11719.38	
8415.71	6442.46	1297.57	779.31	9592.0	8967.0	7775.0	7150.0	2442.0	1817.0	625.0		781.31	1298.78	3483.04	6442.71	8415.9	10617.54	8423.97	6453.25	1350.12	863.97	800.0	1015.2	1985.32	2569.7	7194.62	7816.05	9002.62	9625.3	8482.94	6530.03	1679.2	1320.35	2351.35	2570.06	6813.72	8703.2	9925.17	9322.53	8182.49	7591.11	3530.7	3131.13	2625.48	2550.0	2952.87	3129.83	4546.88	7043.97	8884.61	11012.47	8940.88	7114.8	3286.16	3118.08	3350.0	3407.8	3811.04	4145.58	7895.89	8466.0	9572.33	10160.17	9171.9	7403.03	3870.81	3729.19	4843.07	4952.95	8022.05	9678.44	10863.54	10315.87	9298.42	8782.51	5654.5	5414.01	5138.15	5100.0	5462.0	5559.66	8410.2	10002.52	11950.82	10095.56	8520.65	6497.82	5725.37	5630.58	5900.0	5933.01	6173.45	6385.4	9269.98	9760.15	10733.92	11261.28	10454.29	8942.78	6336.54	6251.03	7374.74	7447.36	9761.39	11162.6	12269.02	11786.84	10907.48	10471.15	8030.31	7862.82	7675.49	7650.0	7997.03	8064.05	10239.65	11583.15	13318.21	11700.7	10372.44	8762.08	8232.0	8166.36	8450.0	8473.08	8643.15	8795.79	11069.1	11482.73	12321.1	12783.15	8789.13	8850.15	10869.54	12143.55	
9146.38	7177.26	2071.53	625.0	10311.81	9687.12	8495.84	7871.31	3172.68	2551.52	1376.53	781.31		1975.0	4175.87	7150.0	9125.0	11325.32	9126.58	7152.02	1982.3	170.0	863.97	1425.07	2578.03	3194.04	7879.94	8503.84	9694.14	10318.4	9159.57	7194.06	2129.0	795.0	1925.0	2757.94	7404.6	9325.84	10546.54	9936.62	8779.26	8176.4	3868.06	3377.31	2605.92	2346.58	2550.0	3225.39	4936.99	7591.11	9474.6	11627.5	9521.77	7649.9	3361.4	2720.0	3118.08	3317.65	3952.5	4379.25	8430.27	9016.17	10146.54	10744.56	9718.78	7893.76	3884.54	3345.0	4475.0	4891.45	8434.93	10163.23	11363.56	10799.88	9745.58	9206.22	5732.61	5413.62	4969.09	4838.12	5100.0	5469.06	8782.51	10453.5	12455.51	10537.48	8882.31	6656.94	5627.92	5270.0	5630.58	5743.5	6132.15	6415.52	9646.27	10162.3	11177.36	11722.9	10863.55	9266.8	6217.05	5895.0	7025.0	7297.35	10023.63	11515.91	12650.55	12146.74	11219.73	10754.55	7985.54	7759.72	7456.39	7369.77	7650.0	7900.83	10471.15	11907.48	13714.44	12017.41	10595.99	8789.82	8065.55	7820.0	8166.36	8244.62	8519.93	8726.1	11315.32	11758.33	12645.92	13130.59	8445.0	8672.87	11065.28	12433.17	
7177.26	5212.6	625.0	2071.53	8337.95	7713.43	6522.61	5898.42	1223.25	639.9	708.84	1298.78	1975.0		2201.64	5175.0	7150.0	9350.39	7152.02	5177.79	170.0	1982.3	1350.12	799.03	738.56	1277.63	5909.93	6533.03	7722.25	8346.1	7194.06	5235.71	795.0	2129.0	2757.94	1925.0	5521.44	7404.6	8626.55	8024.53	6887.7	6299.79	2528.31	2303.36	2323.46	2565.7	3225.39	2550.0	3432.67	5769.15	7591.11	9714.2	7649.9	5846.28	2720.0	3361.4	3286.16	3100.72	3085.69	3257.05	6625.96	7187.24	8283.06	8867.55	7893.76	6161.95	3345.0	3884.54	4891.45	4475.0	6841.51	8434.93	9608.25	9071.61	8083.41	7588.7	4928.83	4817.31	4826.95	4948.11	5469.06	5100.0	7265.72	8782.51	10691.43	8882.31	7386.04	5632.43	5270.0	5627.92	5725.37	5620.98	5612.71	5708.71	8116.92	8581.23	9517.88	10030.68	9266.8	7844.21	5895.0	6217.05	7297.35	7025.0	8725.32	10023.63	11100.65	10639.55	9810.58	9407.14	7429.63	7356.12	7362.44	7442.43	7900.83	7650.0	9235.97	10471.15	12134.77	10595.99	9377.26	8041.78	7820.0	8065.55	8232.0	8159.75	8154.05	8220.42	10043.42	10422.26	11206.07	11644.76	8672.87	8445.0	9904.48	11065.28	
5000.66	3058.55	2311.73	4234.94	6145.03	5521.51	4333.5	3711.62	1093.77	1690.99	2863.08	3483.04	4175.87	2201.64		2976.21	4950.73	7150.0	4950.73	2976.21	2201.64	4175.87	3483.04	2863.08	1690.99	1093.77	3711.62	4333.5	5521.51	6145.03	5000.66	3058.55	2311.73	4234.94	4562.48	2868.03	3498.03	5280.92	6497.99	5911.81	4820.97	4270.67	2378.83	2705.91	3558.05	4073.59	4848.39	3303.97	2550.0	3863.53	5529.8	7591.11	5607.65	3974.15	3432.67	4936.99	4546.88	4091.42	3376.68	3120.71	4724.26	5227.02	6247.36	6804.7	5927.07	4413.41	3932.89	5297.0	6058.28	4910.41	5303.09	6616.24	7726.02	7239.96	6380.38	5975.46	4808.98	4978.9	5488.83	5836.23	6525.4	5476.33	5831.02	7046.47	8782.51	7168.45	5977.86	5100.0	5632.43	6656.94	6497.82	6187.67	5740.16	5593.42	6623.15	6990.65	7783.13	8237.2	7632.73	6527.38	6212.58	7154.49	8099.03	7280.36	7550.78	8524.44	9495.47	9104.37	8436.93	8135.02	7321.12	7433.84	7784.58	8033.31	8640.59	7878.4	8128.95	9040.56	10471.15	9183.29	8287.39	7650.0	8041.78	8789.82	8762.08	8534.62	8215.96	8114.11	8855.43	9133.55	9753.44	10119.48	9344.53	8644.63	8873.57	9715.56	
2071.53	625.0	5212.6	7177.26	3172.68	2551.52	1376.53	781.31	4005.41	4628.73	5818.53	6442.71	7150.0	5175.0	2976.21		1975.0	4175.87	1982.3	170.0	5177.79	7152.02	6453.25	5830.21	4643.4	4022.35	863.97	1425.07	2578.03	3194.04	2129.0	795.0	5235.71	7194.06	7404.6	5521.44	1925.0	2757.94	3868.06	3377.31	2605.92	2346.58	4575.95	5130.41	6225.06	6812.08	7591.11	5769.15	3974.15	2550.0	3225.39	4936.99	3361.4	2720.0	5846.28	7649.9	7114.8	6554.95	5526.04	5015.5	3118.08	3317.65	3952.5	4379.25	3884.54	3345.0	6161.95	7893.76	8434.93	6841.51	4475.0	4891.45	5732.61	5413.62	4969.09	4838.12	6232.2	6649.97	7526.77	8019.07	8782.51	7265.72	5100.0	5469.06	6656.94	5627.92	5270.0	5977.86	7386.04	8882.31	8520.65	8059.05	7246.94	6865.59	5630.58	5743.5	6132.15	6415.52	6217.05	5895.0	7844.21	9266.8	10023.63	8725.32	7025.0	7297.35	7985.54	7759.72	7456.39	7369.77	8351.42	8667.65	9357.26	9757.64	10471.15	9235.97	7650.0	7900.83	8789.82	8065.55	7820.0	8287.39	9377.26	10595.99	10372.44	9996.72	9354.37	9062.13	8166.36	8244.62	8519.93	8726.1	11065.28	9904.48	8445.0	8672.87	
625.0	2071.53	7177.26	9146.38	1223.25	639.9	708.84	1298.78	5976.31	6600.52	7791.37	8415.9	9125.0	7150.0	4950.73	1975.0		2201.64	170.0	1982.3	7152.02	9126.58	8423.97	7800.09	6610.81	5987.67	1350.12	799.03	738.56	1277.63	795.0	2129.0	7194.06	9159.57	9325.84	7404.6	2757.94	1925.0	2528.31	2303.36	2323.46	2565.7	6372.77	6961.53	8099.47	8701.92	9474.6	7591.11	5607.65	3225.39	2550.0	3432.67	2720.0	3361.4	7649.9	9521.77	8940.88	8355.68	7258.02	6695.39	3286.16	3100.72	3085.69	3257.05	3345.0	3884.54	7893.76	9718.78	10163.23	8434.93	4891.45	4475.0	4928.83	4817.31	4826.95	4948.11	7649.4	8146.4	9137.97	9675.97	10453.5	8782.51	5469.06	5100.0	5632.43	5270.0	5627.92	7168.45	8882.31	10537.48	10095.56	9581.15	8640.59	8173.69	5725.37	5620.98	5612.71	5708.71	5895.0	6217.05	9266.8	10863.55	11515.91	10023.63	7297.35	7025.0	7429.63	7356.12	7362.44	7442.43	9456.18	9862.55	10696.19	11159.32	11907.48	10471.15	7900.83	7650.0	8041.78	7820.0	8065.55	9183.29	10595.99	12017.41	11700.7	11259.86	10471.19	10089.36	8232.0	8159.75	8154.05	8220.42	12433.17	11065.28	8672.87	8445.0	
2311.73	4234.94	9376.92	11347.23	1093.77	1690.99	2863.08	3483.04	8177.79	8802.09	9993.01	10617.54	11325.32	9350.39	7150.0	4175.87	2201.64		2201.64	4175.87	9350.39	11325.32	10617.54	9993.01	8802.09	8177.79	3483.04	2863.08	1690.99	1093.77	2311.73	4234.94	9376.92	11347.23	11473.5	9529.33	4562.48	2868.03	2378.83	2705.91	3558.05	4073.59	8446.23	9052.04	10213.85	10825.65	11590.16	9669.47	7591.11	4848.39	3303.97	2550.0	3432.67	4936.99	9714.2	11627.5	11012.47	10411.66	9274.66	8684.4	4546.88	4091.42	3376.68	3120.71	3932.89	5297.0	9902.03	11784.87	12146.1	10329.31	6058.28	4910.41	4808.98	4978.9	5488.83	5836.23	9423.71	9970.3	11035.86	11604.4	12385.71	10610.03	6525.4	5476.33	5100.0	5632.43	6656.94	8782.51	10691.43	12455.51	11950.82	11399.57	10371.44	9847.14	6497.82	6187.67	5740.16	5593.42	6212.58	7154.49	11008.12	12728.38	13282.29	11644.14	8099.03	7280.36	7321.12	7433.84	7784.58	8033.31	10921.48	11396.46	12339.48	12850.47	13619.28	12027.12	8640.59	7878.4	7650.0	8041.78	8789.82	10471.15	12134.77	13714.44	13318.21	12825.86	11921.38	11468.16	8762.08	8534.62	8215.96	8114.11	14076.41	12542.41	9344.53	8644.63	
795.0	2129.0	7194.06	9159.57	1277.63	738.56	799.03	1350.12	5987.67	6610.81	7800.09	8423.97	9126.58	7152.02	4950.73	1982.3	170.0	2201.64		1975.0	7150.0	9125.0	8415.9	7791.37	6600.52	5976.31	1298.78	708.84	639.9	1223.25	625.0	2071.53	7177.26	9146.38	9292.24	7362.24	2642.09	1755.0	2379.36	2138.8	2160.43	2419.05	6315.16	6908.83	8054.22	8659.81	9430.27	7535.71	5529.8	3092.74	2380.0	3303.97	2550.0	3225.39	7591.11	9474.6	8884.61	8295.45	7188.59	6620.06	3129.83	2934.53	2918.64	3099.25	3175.0	3739.15	7823.24	9661.59	10089.53	8345.99	4736.42	4305.0	4763.96	4648.49	4658.48	4783.91	7544.22	8047.72	9050.11	9593.04	10371.62	8684.89	5310.89	4930.0	5476.33	5100.0	5469.06	7046.47	8782.51	10453.5	10002.52	9483.06	8531.7	8058.49	5559.66	5452.11	5443.57	5542.5	5725.0	6056.09	9159.59	10772.24	11413.0	9905.23	7133.84	6855.0	7261.84	7186.62	7193.08	7274.95	9324.93	9736.78	10580.33	11048.32	11798.98	10347.6	7736.34	7480.0	7878.4	7650.0	7900.83	9040.56	10471.15	11907.48	11583.15	11137.66	10339.67	9952.8	8064.05	7990.27	7984.45	8052.23	12318.33	10936.09	8507.42	8275.0	
2129.0	795.0	5235.71	7194.06	3194.04	2578.03	1425.07	863.97	4022.35	4643.4	5830.21	6453.25	7152.02	5177.79	2976.21	170.0	1982.3	4175.87	1975.0		5175.0	7150.0	6442.71	5818.53	4628.73	4005.41	781.31	1376.53	2551.52	3172.68	2071.53	625.0	5212.6	7177.26	7362.24	5464.49	1755.0	2642.09	3772.38	3267.3	2461.67	2185.28	4495.36	5058.67	6166.06	6758.21	7535.71	5696.05	3863.53	2380.0	3092.74	4848.39	3225.39	2550.0	5769.15	7591.11	7043.97	6477.99	5434.53	4914.5	2952.87	3162.88	3823.51	4263.2	3739.15	3175.0	6071.35	7823.24	8345.99	6731.54	4305.0	4736.42	5591.5	5263.96	4805.6	4670.06	6102.64	6528.72	7419.86	7918.8	8684.89	7147.41	4930.0	5310.89	6525.4	5469.06	5100.0	5831.02	7265.72	8782.51	8410.2	7942.19	7116.75	6728.02	5462.0	5578.34	5977.73	6268.08	6056.09	5725.0	7717.27	9159.59	9905.23	8589.04	6855.0	7133.84	7829.68	7599.23	7289.23	7200.59	8202.52	8524.27	9224.6	9630.5	10347.6	9095.66	7480.0	7736.34	8640.59	7900.83	7650.0	8128.95	9235.97	10471.15	10239.65	9858.87	9206.91	8909.84	7997.03	8076.93	8357.77	8567.84	10936.09	9759.93	8275.0	8507.42	
7194.06	5235.71	795.0	2129.0	8346.1	7722.25	6533.03	5909.93	1277.63	738.56	799.03	1350.12	1982.3	170.0	2201.64	5177.79	7152.02	9350.39	7150.0	5175.0		1975.0	1298.78	708.84	639.9	1223.25	5898.42	6522.61	7713.43	8337.95	7177.26	5212.6	625.0	2071.53	2642.09	1755.0	5464.49	7362.24	8584.08	7978.85	6834.43	6241.5	2379.36	2138.8	2160.43	2419.05	3092.74	2380.0	3303.97	5696.05	7535.71	9669.47	7591.11	5769.15	2550.0	3225.39	3129.83	2934.53	2918.64	3099.25	6549.83	7117.12	8222.29	8810.81	7823.24	6071.35	3175.0	3739.15	4736.42	4305.0	6731.54	8345.99	9524.73	8983.1	7983.95	7482.67	4763.96	4648.49	4658.48	4783.91	5310.89	4930.0	7147.41	8684.89	10610.03	8782.51	7265.72	5476.33	5100.0	5469.06	5559.66	5452.11	5443.57	5542.5	8000.9	8471.57	9419.13	9937.02	9159.59	7717.27	5725.0	6056.09	7133.84	6855.0	8589.04	9905.23	10989.06	10523.07	9684.13	9275.2	7261.84	7186.62	7193.08	7274.95	7736.34	7480.0	9095.66	10347.6	12027.12	10471.15	9235.97	7878.4	7650.0	7900.83	8064.05	7990.27	7984.45	8052.23	9906.23	10290.11	11083.28	11526.64	8507.42	8275.0	9759.93	10936.09	
9159.57	7194.06	2129.0	795.0	10318.4	9694.14	8503.84	7879.94	3194.04	2578.03	1425.07	863.97	170.0	1982.3	4175.87	7152.02	9126.58	11325.32	9125.0	7150.0	1975.0		781.31	1376.53	2551.52	3172.68	7871.31	8495.84	9687.12	10311.81	9146.38	7177.26	2071.53	625.0	1755.0	2642.09	7362.24	9292.24	10511.83	9899.77	8737.52	8131.57	3772.38	3267.3	2461.67	2185.28	2380.0	3092.74	4848.39	7535.71	9430.27	11590.16	9474.6	7591.11	3225.39	2550.0	2952.87	3162.88	3823.51	4263.2	8370.57	8960.38	10097.0	10697.78	9661.59	7823.24	3739.15	3175.0	4305.0	4736.42	8345.99	10089.53	11293.03	10725.64	9663.25	9119.02	5591.5	5263.96	4805.6	4670.06	4930.0	5310.89	8684.89	10371.62	12385.71	10453.5	8782.51	6525.4	5469.06	5100.0	5462.0	5578.34	5977.73	6268.08	9548.85	10069.87	11093.39	11642.87	10772.24	9159.59	6056.09	5725.0	6855.0	7133.84	9905.23	11413.0	12552.75	12044.85	11109.34	10639.34	7829.68	7599.23	7289.23	7200.59	7480.0	7736.34	10347.6	11798.98	13619.28	11907.48	10471.15	8640.59	7900.83	7650.0	7997.03	8076.93	8357.77	8567.84	11193.72	11641.36	12537.24	13025.95	8275.0	8507.42	10936.09	12318.33	
8482.94	6530.03	1679.2	1320.35	9625.3	9002.62	7816.05	7194.62	2569.7	1985.32	1015.2	800.0	863.97	1350.12	3483.04	6453.25	8423.97	10617.54	8415.9	6442.71	1298.78	781.31		625.0	1817.0	2442.0	7150.0	7775.0	8967.0	9592.0	8415.71	6442.46	1297.57	779.31	1607.74	1913.43	6594.15	8532.39	9750.33	9136.17	7969.51	7361.05	3004.31	2522.69	1858.26	1750.0	2185.28	2419.05	4073.59	6758.21	8659.81	10825.65	8701.92	6812.08	2565.7	2346.58	2550.0	2625.48	3131.13	3530.7	7591.11	8182.49	9322.53	9925.17	8883.0	7041.93	3125.25	2948.02	4053.56	4184.22	7571.61	9308.5	10511.73	9944.7	8884.85	8343.41	4945.03	4668.14	4345.18	4300.0	4670.06	4783.91	7918.8	9593.04	11604.4	9675.97	8019.07	5836.23	4948.11	4838.12	5100.0	5138.15	5414.01	5654.5	8782.51	9298.42	10315.87	10863.54	9999.81	8406.98	5554.79	5457.04	6578.97	6660.27	9175.01	10653.62	11786.81	11284.04	10362.1	9901.77	7272.27	7086.89	6878.45	6850.0	7200.59	7274.95	9630.5	11048.32	12850.47	11159.32	9757.64	8033.31	7442.43	7369.77	7650.0	7675.49	7862.82	8030.31	10471.15	10907.48	11786.84	12269.02	7992.05	8059.11	10235.76	11579.71	
7863.73	5915.08	1278.8	1740.03	9002.62	8380.27	7194.62	6573.86	1985.32	1435.57	800.0	1015.2	1425.07	799.03	2863.08	5830.21	7800.09	9993.01	7791.37	5818.53	708.84	1376.53	625.0		1192.0	1817.0	6525.0	7150.0	8342.0	8967.0	7791.17	5818.26	706.63	1375.39	1967.03	1573.79	5985.79	7917.06	9136.17	8523.58	7361.05	6755.6	2522.69	2117.4	1750.0	1858.26	2461.67	2160.43	3558.05	6166.06	8054.22	10213.85	8099.47	6225.06	2323.46	2605.92	2625.48	2550.0	2814.85	3131.13	7005.58	7591.11	8723.04	9322.53	8293.72	6475.78	2929.65	3158.35	4209.0	4040.21	7048.13	8747.93	9944.7	9385.04	8343.41	7814.45	4668.14	4462.16	4300.0	4345.18	4805.6	4658.48	7419.86	9050.11	11035.86	9137.97	7526.77	5488.83	4826.95	4969.09	5138.15	5100.0	5237.45	5414.01	8281.64	8782.51	9777.47	10315.87	9480.21	7938.78	5447.14	5573.48	6675.87	6570.76	8748.01	10167.49	11284.04	10794.05	9901.77	9460.34	7086.89	6952.94	6850.0	6878.45	7289.23	7193.08	9224.6	10580.33	12339.48	10696.19	9357.26	7784.58	7362.44	7456.39	7675.49	7650.0	7742.31	7862.82	10054.76	10471.15	11318.63	11786.84	8072.0	7985.29	9854.83	11134.08	
6685.79	4749.53	1241.91	2764.62	7816.05	7194.62	6011.47	5392.67	1015.2	800.0	1435.57	1985.32	2578.03	738.56	1690.99	4643.4	6610.81	8802.09	6600.52	4628.73	639.9	2551.52	1817.0	1192.0		625.0	5333.0	5958.0	7150.0	7775.0	6600.28	4628.39	637.46	2550.91	2912.84	1543.97	4837.31	6748.43	7969.51	7361.05	6209.69	5612.79	1858.26	1750.0	2117.4	2522.69	3267.3	2138.8	2705.91	5058.67	6908.83	9052.04	6961.53	5130.41	2303.36	3377.31	3131.13	2814.85	2550.0	2625.48	5911.29	6480.76	7591.11	8182.49	7186.6	5431.9	2913.73	3819.77	4725.58	4028.69	6102.95	7706.34	8884.85	8343.41	7347.64	6850.61	4345.18	4300.0	4462.16	4668.14	5263.96	4648.49	6528.72	8047.72	9970.3	8146.4	6649.97	4978.9	4817.31	5413.62	5414.01	5237.45	5100.0	5138.15	7379.08	7842.69	8782.51	9298.42	8528.53	7112.95	5438.6	5973.2	7013.03	6563.68	8006.09	9286.51	10362.1	9901.77	9078.56	8681.21	6878.45	6850.0	6952.94	7086.89	7599.23	7186.62	8524.27	9736.78	11396.46	9862.55	8667.65	7433.84	7356.12	7759.72	7862.82	7742.31	7650.0	7675.49	9325.42	9696.4	10471.15	10907.48	8353.0	7979.46	9202.58	10335.82	
6070.35	4144.41	1621.49	3346.45	7194.62	6573.86	5392.67	4775.49	800.0	1015.2	1985.32	2569.7	3194.04	1277.63	1093.77	4022.35	5987.67	8177.79	5976.31	4005.41	1223.25	3172.68	2442.0	1817.0	625.0		4708.0	5333.0	6525.0	7150.0	5976.05	4005.02	1221.98	3172.18	3469.91	1862.99	4244.72	6139.27	7361.05	6755.6	5612.79	5022.72	1750.0	1858.26	2522.69	3004.31	3772.38	2379.36	2378.83	4495.36	6315.16	8446.23	6372.77	4575.95	2528.31	3868.06	3530.7	3131.13	2625.48	2550.0	5354.23	5911.29	7005.58	7591.11	6617.9	4911.58	3094.63	4259.84	5087.9	4161.4	5644.83	7178.94	8343.41	7814.45	6850.61	6376.15	4300.0	4345.18	4668.14	4945.03	5591.5	4763.96	6102.64	7544.22	9423.71	7649.4	6232.2	4808.98	4928.83	5732.61	5654.5	5414.01	5138.15	5100.0	6940.84	7379.08	8281.64	8782.51	8055.13	6724.0	5537.62	6263.76	7262.11	6645.96	7662.61	8853.74	9901.77	9460.34	8681.21	8311.9	6850.0	6878.45	7086.89	7272.27	7829.68	7261.84	8202.52	9324.93	10921.48	9456.18	8351.42	7321.12	7429.63	7985.54	8030.31	7862.82	7675.49	7650.0	8982.64	9325.42	10054.76	10471.15	8563.19	8047.28	8905.37	9948.8	
1679.2	1320.35	5993.68	7942.94	2569.7	1985.32	1015.2	800.0	4775.49	5392.67	6573.86	7194.62	7879.94	5909.93	3711.62	863.97	1350.12	3483.04	1298.78	781.31	5898.42	7871.31	7150.0	6525.0	5333.0	4708.0		625.0	1817.0	2442.0	1297.57	779.31	5898.15	7871.11	7995.74	6063.47	1607.74	1913.43	3004.31	2522.69	1858.26	1750.0	5022.72	5612.79	6755.6	7361.05	8131.57	6241.5	4270.67	2185.28	2419.05	4073.59	2565.7	2346.58	6299.79	8176.4	7591.11	7005.58	5911.29	5354.23	2550.0	2625.48	3131.13	3530.7	3125.25	2948.02	6547.65	8368.86	8819.2	7114.23	4053.56	4184.22	4945.03	4668.14	4345.18	4300.0	6376.15	6850.61	7814.45	8343.41	9119.02	7482.67	4670.06	4783.91	5836.23	4948.11	4838.12	5975.46	7588.7	9206.22	8782.51	8281.64	7379.08	6940.84	5100.0	5138.15	5414.01	5654.5	5554.79	5457.04	7997.51	9546.01	10228.87	8801.35	6578.97	6660.27	7272.27	7086.89	6878.45	6850.0	8311.9	8681.21	9460.34	9901.77	10639.34	9275.2	7200.59	7274.95	8033.31	7442.43	7369.77	8135.02	9407.14	10754.55	10471.15	10054.76	9325.42	8982.64	7650.0	7675.49	7862.82	8030.31	11190.17	9902.21	7992.05	8059.11	
1278.8	1740.03	6608.88	8562.25	1985.32	1435.57	800.0	1015.2	5392.67	6011.47	7194.62	7816.05	8503.84	6533.03	4333.5	1425.07	799.03	2863.08	708.84	1376.53	6522.61	8495.84	7775.0	7150.0	5958.0	5333.0	625.0		1192.0	1817.0	706.63	1375.39	6522.37	8495.66	8611.25	6672.24	1967.03	1573.79	2522.69	2117.4	1750.0	1858.26	5612.79	6209.69	7361.05	7969.51	8737.52	6834.43	4820.97	2461.67	2160.43	3558.05	2323.46	2605.92	6887.7	8779.26	8182.49	7591.11	6480.76	5911.29	2625.48	2550.0	2814.85	3131.13	2929.65	3158.35	7115.11	8958.78	9380.84	7639.72	4209.0	4040.21	4668.14	4462.16	4300.0	4345.18	6850.61	7347.64	8343.41	8884.85	9663.25	7983.95	4805.6	4658.48	5488.83	4826.95	4969.09	6380.38	8083.41	9745.58	9298.42	8782.51	7842.69	7379.08	5138.15	5100.0	5237.45	5414.01	5447.14	5573.48	8468.37	10067.18	10716.89	9231.3	6675.87	6570.76	7086.89	6952.94	6850.0	6878.45	8681.21	9078.56	9901.77	10362.1	11109.34	9684.13	7289.23	7193.08	7784.58	7362.44	7456.39	8436.93	9810.58	11219.73	10907.48	10471.15	9696.4	9325.42	7675.49	7650.0	7742.31	7862.82	11637.94	10286.24	8072.0	7985.29	
1241.91	2764.62	7786.52	9745.42	1015.2	800.0	1435.57	1985.32	6573.86	7194.62	8380.27	9002.62	9694.14	7722.25	5521.51	2578.03	738.56	1690.99	639.9	2551.52	7713.43	9687.12	8967.0	8342.0	7150.0	6525.0	1817.0	1192.0		625.0	637.46	2550.91	7713.23	9686.96	9788.5	7840.37	2912.84	1543.97	1858.26	1750.0	2117.4	2522.69	6755.6	7361.05	8523.58	9136.17	9899.77	7978.85	5911.81	3267.3	2138.8	2705.91	2303.36	3377.31	8024.53	9936.62	9322.53	8723.04	7591.11	7005.58	3131.13	2814.85	2550.0	2625.48	2913.73	3819.77	8220.55	10095.58	10471.93	8678.59	4725.58	4028.69	4345.18	4300.0	4462.16	4668.14	7814.45	8343.41	9385.04	9944.7	10725.64	8983.1	5263.96	4648.49	4978.9	4817.31	5413.62	7239.96	9071.61	10799.88	10315.87	9777.47	8782.51	8281.64	5414.01	5237.45	5100.0	5138.15	5438.6	5973.2	9416.26	11090.95	11683.87	10107.89	7013.03	6563.68	6878.45	6850.0	6952.94	7086.89	9460.34	9901.77	10794.05	11284.04	12044.85	10523.07	7599.23	7186.62	7433.84	7356.12	7759.72	9104.37	10639.55	12146.74	11786.84	11318.63	10471.15	10054.76	7862.82	7742.31	7650.0	7675.49	12534.06	11079.69	8353.0	7979.46	
1621.49	3346.45	8405.61	10366.6	800.0	1015.2	1985.32	2569.7	7194.62	7816.05	9002.62	9625.3	10318.4	8346.1	6145.03	3194.04	1277.63	1093.77	1223.25	3172.68	8337.95	10311.81	9592.0	8967.0	7775.0	7150.0	2442.0	1817.0	625.0		1221.98	3172.18	8337.76	10311.66	10407.11	8455.52	3469.91	1862.99	1750.0	1858.26	2522.69	3004.31	7361.05	7969.51	9136.17	9750.33	10511.83	8584.08	6497.99	3772.38	2379.36	2378.83	2528.31	3868.06	8626.55	10546.54	9925.17	9322.53	8182.49	7591.11	3530.7	3131.13	2625.48	2550.0	3094.63	4259.84	8809.19	10696.44	11052.35	9238.09	5087.9	4161.4	4300.0	4345.18	4668.14	4945.03	8343.41	8884.85	9944.7	10511.73	11293.03	9524.73	5591.5	4763.96	4808.98	4928.83	5732.61	7726.02	9608.25	11363.56	10863.54	10315.87	9298.42	8782.51	5654.5	5414.01	5138.15	5100.0	5537.62	6263.76	9934.3	11640.55	12206.8	10592.16	7262.11	6645.96	6850.0	6878.45	7086.89	7272.27	9901.77	10362.1	11284.04	11786.81	12552.75	10989.06	7829.68	7261.84	7321.12	7429.63	7985.54	9495.47	11100.65	12650.55	12269.02	11786.84	10907.48	10471.15	8030.31	7862.82	7675.49	7650.0	13022.9	11523.19	8563.19	8047.28	
1420.0	2432.49	7289.64	9234.83	1621.49	1241.91	1278.8	1679.2	6070.35	6685.79	7863.73	8482.94	9159.57	7194.06	5000.66	2129.0	795.0	2311.73	625.0	2071.53	7177.26	9146.38	8415.71	7791.17	6600.28	5976.05	1297.57	706.63	637.46	1221.98		1975.0	7150.0	9125.0	9194.7	7238.74	2275.42	1130.0	1862.99	1543.97	1573.79	1913.43	6139.27	6748.43	7917.06	8532.39	9292.24	7362.24	5280.92	2642.09	1755.0	2868.03	1925.0	2757.94	7404.6	9325.84	8703.2	8100.85	6963.13	6374.53	2570.06	2328.27	2308.21	2532.73	2550.0	3225.39	7591.11	9474.6	9839.11	8041.45	4176.48	3680.0	4161.4	4028.69	4040.21	4184.22	7178.94	7706.34	8747.93	9308.5	10089.53	8345.99	4736.42	4305.0	4910.41	4475.0	4891.45	6616.24	8434.93	10163.23	9678.44	9140.59	8149.34	7652.52	4952.95	4831.91	4822.28	4933.68	5100.0	5469.06	8782.51	10453.5	11048.92	9483.43	6535.56	6230.0	6645.96	6563.68	6570.76	6660.27	8853.74	9286.51	10167.49	10653.62	11413.0	9905.23	7133.84	6855.0	7280.36	7025.0	7297.35	8524.44	10023.63	11515.91	11162.6	10699.62	9866.27	9460.05	7447.36	7367.42	7361.1	7434.56	11907.48	10471.15	7900.83	7650.0	
2432.49	1420.0	5366.29	7289.64	3346.45	2764.62	1740.03	1320.35	4144.41	4749.53	5915.08	6530.03	7194.06	5235.71	3058.55	795.0	2129.0	4234.94	2071.53	625.0	5212.6	7177.26	6442.46	5818.26	4628.39	4005.02	779.31	1375.39	2550.91	3172.18	1975.0		5175.0	7150.0	7238.74	5296.94	1130.0	2275.42	3469.91	2912.84	1967.03	1607.74	4244.72	4837.31	5985.79	6594.15	7362.24	5464.49	3498.03	1755.0	2642.09	4562.48	2757.94	1925.0	5521.44	7404.6	6813.72	6226.85	5132.59	4578.39	2351.35	2610.21	3380.62	3870.95	3225.39	2550.0	5769.15	7591.11	8041.45	6350.04	3680.0	4176.48	5087.9	4725.58	4209.0	4053.56	5644.83	6102.95	7048.13	7571.61	8345.99	6731.54	4305.0	4736.42	6058.28	4891.45	4475.0	5303.09	6841.51	8434.93	8022.05	7529.95	6653.57	6236.04	4843.07	4973.9	5418.04	5736.79	5469.06	5100.0	7265.72	8782.51	9483.43	8098.98	6230.0	6535.56	7262.11	7013.03	6675.87	6578.97	7662.61	8006.09	8748.01	9175.01	9905.23	8589.04	6855.0	7133.84	8099.03	7297.35	7025.0	7550.78	8725.32	10023.63	9761.39	9361.18	8671.88	8355.82	7374.74	7461.31	7764.45	7990.13	10471.15	9235.97	7650.0	7900.83	
7289.64	5366.29	1420.0	2432.49	8405.61	7786.52	6608.88	5993.68	1621.49	1241.91	1278.8	1679.2	2129.0	795.0	2311.73	5235.71	7194.06	9376.92	7177.26	5212.6	625.0	2071.53	1297.57	706.63	637.46	1221.98	5898.15	6522.37	7713.23	8337.76	7150.0	5175.0		1975.0	2275.42	1130.0	5296.94	7238.74	8455.52	7840.37	6672.24	6063.47	1862.99	1543.97	1573.79	1913.43	2642.09	1755.0	2868.03	5464.49	7362.24	9529.33	7404.6	5521.44	1925.0	2757.94	2570.06	2328.27	2308.21	2532.73	6301.56	6889.33	8025.92	8627.85	7591.11	5769.15	2550.0	3225.39	4176.48	3680.0	6350.04	8041.45	9238.09	8678.59	7639.72	7114.23	4161.4	4028.69	4040.21	4184.22	4736.42	4305.0	6731.54	8345.99	10329.31	8434.93	6841.51	4910.41	4475.0	4891.45	4952.95	4831.91	4822.28	4933.68	7591.85	8086.37	9074.25	9610.74	8782.51	7265.72	5100.0	5469.06	6535.56	6230.0	8098.98	9483.43	10592.16	10107.89	9231.3	8801.35	6645.96	6563.68	6570.76	6660.27	7133.84	6855.0	8589.04	9905.23	11644.14	10023.63	8725.32	7280.36	7025.0	7297.35	7447.36	7367.42	7361.1	7434.56	9411.04	9814.32	10643.0	11103.96	7900.83	7650.0	9235.97	10471.15	
9234.83	7289.64	2432.49	1420.0	10366.6	9745.42	8562.25	7942.94	3346.45	2764.62	1740.03	1320.35	795.0	2129.0	4234.94	7194.06	9159.57	11347.23	9146.38	7177.26	2071.53	625.0	779.31	1375.39	2550.91	3172.18	7871.11	8495.66	9686.96	10311.66	9125.0	7150.0	1975.0		1130.0	2275.42	7238.74	9194.7	10407.11	9788.5	8611.25	7995.74	3469.91	2912.84	1967.03	1607.74	1755.0	2642.09	4562.48	7362.24	9292.24	11473.5	9325.84	7404.6	2757.94	1925.0	2351.35	2610.21	3380.62	3870.95	8177.76	8780.53	9937.74	10547.6	9474.6	7591.11	3225.39	2550.0	3680.0	4176.48	8041.45	9839.11	11052.35	10471.93	9380.84	8819.2	5087.9	4725.58	4209.0	4053.56	4305.0	4736.42	8345.99	10089.53	12146.1	10163.23	8434.93	6058.28	4891.45	4475.0	4843.07	4973.9	5418.04	5736.79	9208.82	9748.04	10802.09	11365.67	10453.5	8782.51	5469.06	5100.0	6230.0	6535.56	9483.43	11048.92	12206.8	11683.87	10716.89	10228.87	7262.11	7013.03	6675.87	6578.97	6855.0	7133.84	9905.23	11413.0	13282.29	11515.91	10023.63	8099.03	7297.35	7025.0	7374.74	7461.31	7764.45	7990.13	10757.97	11223.0	12149.76	12653.45	7650.0	7900.83	10471.15	11907.48	
9474.6	7591.11	3225.39	2550.0	10547.6	9937.74	8780.53	8177.76	3870.95	3380.62	2610.21	2351.35	1925.0	2757.94	4562.48	7404.6	9325.84	11473.5	9292.24	7362.24	2642.09	1755.0	1607.74	1967.03	2912.84	3469.91	7995.74	8611.25	9788.5	10407.11	9194.7	7238.74	2275.42	1130.0		1975.0	7150.0	9125.0	10311.66	9686.96	8495.66	7871.11	3172.18	2550.91	1375.39	779.31	625.0	2071.53	4234.94	7177.26	9146.38	11347.23	9159.57	7194.06	2129.0	795.0	1320.35	1740.03	2764.62	3346.45	7942.94	8562.25	9745.42	10366.6	9234.83	7289.64	2432.49	1420.0	2550.0	3225.39	7591.11	9474.6	10696.44	10095.58	8958.78	8368.86	4259.84	3819.77	3158.35	2948.02	3175.0	3739.15	7823.24	9661.59	11784.87	9718.78	7893.76	5297.0	3884.54	3345.0	3729.19	3897.59	4450.46	4833.45	8674.9	9245.31	10350.69	10937.54	9951.21	8178.23	4434.13	3970.0	5100.0	5469.06	8782.51	10453.5	11640.55	11090.95	10067.18	9546.01	6263.76	5973.2	5573.48	5457.04	5725.0	6056.09	9159.59	10772.24	12728.38	10863.55	9266.8	7154.49	6217.05	5895.0	6251.03	6352.93	6706.35	6966.4	10021.09	10518.75	11502.4	12033.22	6520.0	6812.56	9676.41	11214.99	
7591.11	5769.15	2550.0	3225.39	8627.85	8025.92	6889.33	6301.56	2532.73	2308.21	2328.27	2570.06	2757.94	1925.0	2868.03	5521.44	7404.6	9529.33	7362.24	5464.49	1755.0	2642.09	1913.43	1573.79	1543.97	1862.99	6063.47	6672.24	7840.37	8455.52	7238.74	5296.94	1130.0	2275.42	1975.0		5175.0	7150.0	8337.76	7713.23	6522.37	5898.15	1221.98	637.46	706.63	1297.57	2071.53	625.0	2311.73	5212.6	7177.26	9376.92	7194.06	5235.71	795.0	2129.0	1679.2	1278.8	1241.91	1621.49	5993.68	6608.88	7786.52	8405.61	7289.64	5366.29	1420.0	2432.49	3225.39	2550.0	5769.15	7591.11	8809.19	8220.55	7115.11	6547.65	3094.63	2913.73	2929.65	3125.25	3739.15	3175.0	6071.35	7823.24	9902.03	7893.76	6161.95	3932.89	3345.0	3884.54	3870.81	3714.68	3702.14	3846.13	6934.53	7472.67	8531.91	9100.43	8178.23	6522.39	3970.0	4434.13	5469.06	5100.0	7265.72	8782.51	9934.3	9416.26	8468.37	7997.51	5537.62	5438.6	5447.14	5554.79	6056.09	5725.0	7717.27	9159.59	11008.12	9266.8	7844.21	6212.58	5895.0	6217.05	6336.54	6242.38	6234.93	6321.49	8558.98	9000.52	9897.57	10391.65	6812.56	6520.0	8324.12	9676.41	
3225.39	2550.0	5769.15	7591.11	3870.95	3380.62	2610.21	2351.35	4578.39	5132.59	6226.85	6813.72	7404.6	5521.44	3498.03	1925.0	2757.94	4562.48	2642.09	1755.0	5464.49	7362.24	6594.15	5985.79	4837.31	4244.72	1607.74	1967.03	2912.84	3469.91	2275.42	1130.0	5296.94	7238.74	7150.0	5175.0		1975.0	3172.18	2550.91	1375.39	779.31	4005.02	4628.39	5818.26	6442.46	7177.26	5212.6	3058.55	625.0	2071.53	4234.94	2129.0	795.0	5235.71	7194.06	6530.03	5915.08	4749.53	4144.41	1320.35	1740.03	2764.62	3346.45	2432.49	1420.0	5366.29	7289.64	7591.11	5769.15	2550.0	3225.39	4259.84	3819.77	3158.35	2948.02	4911.58	5431.9	6475.78	7041.93	7823.24	6071.35	3175.0	3739.15	5297.0	3884.54	3345.0	4413.41	6161.95	7893.76	7403.03	6866.71	5892.5	5416.61	3729.19	3897.59	4450.46	4833.45	4434.13	3970.0	6522.39	8178.23	8782.51	7265.72	5100.0	5469.06	6263.76	5973.2	5573.48	5457.04	6724.0	7112.95	7938.78	8406.98	9159.59	7717.27	5725.0	6056.09	7154.49	6217.05	5895.0	6527.38	7844.21	9266.8	8942.78	8504.13	7738.86	7382.96	6251.03	6352.93	6706.35	6966.4	9676.41	8324.12	6520.0	6812.56	
2550.0	3225.39	7591.11	9474.6	2532.73	2308.21	2328.27	2570.06	6374.53	6963.13	8100.85	8703.2	9325.84	7404.6	5280.92	2757.94	1925.0	2868.03	1755.0	2642.09	7362.24	9292.24	8532.39	7917.06	6748.43	6139.27	1913.43	1573.79	1543.97	1862.99	1130.0	2275.42	7238.74	9194.7	9125.0	7150.0	1975.0		1221.98	637.46	706.63	1297.57	5976.05	6600.28	7791.17	8415.71	9146.38	7177.26	5000.66	2071.53	625.0	2311.73	795.0	2129.0	7194.06	9159.57	8482.94	7863.73	6685.79	6070.35	1679.2	1278.8	1241.91	1621.49	1420.0	2432.49	7289.64	9234.83	9474.6	7591.11	3225.39	2550.0	3094.63	2913.73	2929.65	3125.25	6617.9	7186.6	8293.72	8883.0	9661.59	7823.24	3739.15	3175.0	3932.89	3345.0	3884.54	5927.07	7893.76	9718.78	9171.9	8602.43	7540.77	7000.9	3870.81	3714.68	3702.14	3846.13	3970.0	4434.13	8178.23	9951.21	10453.5	8782.51	5469.06	5100.0	5537.62	5438.6	5447.14	5554.79	8055.13	8528.53	9480.21	9999.81	10772.24	9159.59	6056.09	5725.0	6212.58	5895.0	6217.05	7632.73	9266.8	10863.55	10454.29	9958.43	9057.14	8612.85	6336.54	6242.38	6234.93	6321.49	11214.99	9676.41	6812.56	6520.0	
3094.63	4259.84	8809.19	10696.44	2550.0	2625.48	3131.13	3530.7	7591.11	8182.49	9322.53	9925.17	10546.54	8626.55	6497.99	3868.06	2528.31	2378.83	2379.36	3772.38	8584.08	10511.83	9750.33	9136.17	7969.51	7361.05	3004.31	2522.69	1858.26	1750.0	1862.99	3469.91	8455.52	10407.11	10311.66	8337.76	3172.18	1221.98		625.0	1817.0	2442.0	7150.0	7775.0	8967.0	9592.0	10311.81	8337.95	6145.03	3172.68	1223.25	1093.77	1277.63	3194.04	8346.1	10318.4	9625.3	9002.62	7816.05	7194.62	2569.7	1985.32	1015.2	800.0	1621.49	3346.45	8405.61	10366.6	10547.6	8627.85	3870.95	2532.73	2550.0	2625.48	3131.13	3530.7	7591.11	8182.49	9322.53	9925.17	10697.78	8810.81	4263.2	3099.25	3120.71	3257.05	4379.25	6804.7	8867.55	10744.56	10160.17	9572.33	8466.0	7895.89	4145.58	3811.04	3407.8	3350.0	3846.13	4833.45	9100.43	10937.54	11365.67	9610.74	5736.79	4933.68	5100.0	5138.15	5414.01	5654.5	8782.51	9298.42	10315.87	10863.54	11642.87	9937.02	6268.08	5542.5	5593.42	5708.71	6415.52	8237.2	10030.68	11722.9	11261.28	10733.92	9760.15	9269.98	6385.4	6173.45	5933.01	5900.0	12033.22	10391.65	6966.4	6321.49	
2913.73	3819.77	8220.55	10095.58	2625.48	2550.0	2814.85	3131.13	7005.58	7591.11	8723.04	9322.53	9936.62	8024.53	5911.81	3377.31	2303.36	2705.91	2138.8	3267.3	7978.85	9899.77	9136.17	8523.58	7361.05	6755.6	2522.69	2117.4	1750.0	1858.26	1543.97	2912.84	7840.37	9788.5	9686.96	7713.23	2550.91	637.46	625.0		1192.0	1817.0	6525.0	7150.0	8342.0	8967.0	9687.12	7713.43	5521.51	2551.52	639.9	1690.99	738.56	2578.03	7722.25	9694.14	9002.62	8380.27	7194.62	6573.86	1985.32	1435.57	800.0	1015.2	1241.91	2764.62	7786.52	9745.42	9937.74	8025.92	3380.62	2308.21	2625.48	2550.0	2814.85	3131.13	7005.58	7591.11	8723.04	9322.53	10097.0	8222.29	3823.51	2918.64	3376.68	3085.69	3952.5	6247.36	8283.06	10146.54	9572.33	8989.52	7895.89	7334.72	3811.04	3555.75	3350.0	3407.8	3702.14	4450.46	8531.91	10350.69	10802.09	9074.25	5418.04	4822.28	5138.15	5100.0	5237.45	5414.01	8281.64	8782.51	9777.47	10315.87	11093.39	9419.13	5977.73	5443.57	5740.16	5612.71	6132.15	7783.13	9517.88	11177.36	10733.92	10217.58	9269.98	8796.91	6173.45	6019.21	5900.0	5933.01	11502.4	9897.57	6706.35	6234.93	
2929.65	3158.35	7115.11	8958.78	3131.13	2814.85	2550.0	2625.48	5911.29	6480.76	7591.11	8182.49	8779.26	6887.7	4820.97	2605.92	2323.46	3558.05	2160.43	2461.67	6834.43	8737.52	7969.51	7361.05	6209.69	5612.79	1858.26	1750.0	2117.4	2522.69	1573.79	1967.03	6672.24	8611.25	8495.66	6522.37	1375.39	706.63	1817.0	1192.0		625.0	5333.0	5958.0	7150.0	7775.0	8495.84	6522.61	4333.5	1376.53	708.84	2863.08	799.03	1425.07	6533.03	8503.84	7816.05	7194.62	6011.47	5392.67	1015.2	800.0	1435.57	1985.32	1278.8	1740.03	6608.88	8562.25	8780.53	6889.33	2610.21	2328.27	3131.13	2814.85	2550.0	2625.48	5911.29	6480.76	7591.11	8182.49	8960.38	7117.12	3162.88	2934.53	4091.42	3100.72	3317.65	5227.02	7187.24	9016.17	8466.0	7895.89	6835.22	6297.89	3407.8	3350.0	3555.75	3811.04	3714.68	3897.59	7472.67	9245.31	9748.04	8086.37	4973.9	4831.91	5414.01	5237.45	5100.0	5138.15	7379.08	7842.69	8782.51	9298.42	10069.87	8471.57	5578.34	5452.11	6187.67	5620.98	5743.5	6990.65	8581.23	10162.3	9760.15	9269.98	8384.97	7953.04	5933.01	5900.0	6019.21	6173.45	10518.75	9000.52	6352.93	6242.38	
3125.25	2948.02	6547.65	8368.86	3530.7	3131.13	2625.48	2550.0	5354.23	5911.29	7005.58	7591.11	8176.4	6299.79	4270.67	2346.58	2565.7	4073.59	2419.05	2185.28	6241.5	8131.57	7361.05	6755.6	5612.79	5022.72	1750.0	1858.26	2522.69	3004.31	1913.43	1607.74	6063.47	7995.74	7871.11	5898.15	779.31	1297.57	2442.0	1817.0	625.0		4708.0	5333.0	6525.0	7150.0	7871.31	5898.42	3711.62	781.31	1298.78	3483.04	1350.12	863.97	5909.93	7879.94	7194.62	6573.86	5392.67	4775.49	800.0	1015.2	1985.32	2569.7	1679.2	1320.35	5993.68	7942.94	8177.76	6301.56	2351.35	2570.06	3530.7	3131.13	2625.48	2550.0	5354.23	5911.29	7005.58	7591.11	8370.57	6549.83	2952.87	3129.83	4546.88	3286.16	3118.08	4724.26	6625.96	8430.27	7895.89	7334.72	6297.89	5778.21	3350.0	3407.8	3811.04	4145.58	3870.81	3729.19	6934.53	8674.9	9208.82	7591.85	4843.07	4952.95	5654.5	5414.01	5138.15	5100.0	6940.84	7379.08	8281.64	8782.51	9548.85	8000.9	5462.0	5559.66	6497.82	5725.37	5630.58	6623.15	8116.92	9646.27	9269.98	8796.91	7953.04	7548.2	5900.0	5933.01	6173.45	6385.4	10021.09	8558.98	6251.03	6336.54	
6617.9	4911.58	3094.63	4259.84	7591.11	7005.58	5911.29	5354.23	2550.0	2625.48	3131.13	3530.7	3868.06	2528.31	2378.83	4575.95	6372.77	8446.23	6315.16	4495.36	2379.36	3772.38	3004.31	2522.69	1858.26	1750.0	5022.72	5612.79	6755.6	7361.05	6139.27	4244.72	1862.99	3469.91	3172.18	1221.98	4005.02	5976.05	7150.0	6525.0	5333.0	4708.0		625.0	1817.0	2442.0	3172.68	1223.25	1093.77	4005.41	5976.31	8177.79	5987.67	4022.35	1277.63	3194.04	2569.7	1985.32	1015.2	800.0	4775.49	5392.67	6573.86	7194.62	6070.35	4144.41	1621.49	3346.45	3870.95	2532.73	4578.39	6374.53	7591.11	7005.58	5911.29	5354.23	2550.0	2625.48	3131.13	3530.7	4263.2	3099.25	4914.5	6620.06	8684.4	6695.39	5015.5	3120.71	3257.05	4379.25	4145.58	3811.04	3407.8	3350.0	5778.21	6297.89	7334.72	7895.89	7000.9	5416.61	3846.13	4833.45	5736.79	4933.68	6236.04	7652.52	8782.51	8281.64	7379.08	6940.84	5100.0	5138.15	5414.01	5654.5	6268.08	5542.5	6728.02	8058.49	9847.14	8173.69	6865.59	5593.42	5708.71	6415.52	6385.4	6173.45	5933.01	5900.0	7548.2	7953.04	8796.91	9269.98	6966.4	6321.49	7382.96	8612.85	
7186.6	5431.9	2913.73	3819.77	8182.49	7591.11	6480.76	5911.29	2625.48	2550.0	2814.85	3131.13	3377.31	2303.36	2705.91	5130.41	6961.53	9052.04	6908.83	5058.67	2138.8	3267.3	2522.69	2117.4	1750.0	1858.26	5612.79	6209.69	7361.05	7969.51	6748.43	4837.31	1543.97	2912.84	2550.91	637.46	4628.39	6600.28	7775.0	7150.0	5958.0	5333.0	625.0		1192.0	1817.0	2551.52	639.9	1690.99	4628.73	6600.52	8802.09	6610.81	4643.4	738.56	2578.03	1985.32	1435.57	800.0	1015.2	5392.67	6011.47	7194.62	7816.05	6685.79	4749.53	1241.91	2764.62	3380.62	2308.21	5132.59	6963.13	8182.49	7591.11	6480.76	5911.29	2625.48	2550.0	2814.85	3131.13	3823.51	2918.64	5434.53	7188.59	9274.66	7258.02	5526.04	3376.68	3085.69	3952.5	3811.04	3555.75	3350.0	3407.8	6297.89	6835.22	7895.89	8466.0	7540.77	5892.5	3702.14	4450.46	5418.04	4822.28	6653.57	8149.34	9298.42	8782.51	7842.69	7379.08	5138.15	5100.0	5237.45	5414.01	5977.73	5443.57	7116.75	8531.7	10371.44	8640.59	7246.94	5740.16	5612.71	6132.15	6173.45	6019.21	5900.0	5933.01	7953.04	8384.97	9269.98	9760.15	6706.35	6234.93	7738.86	9057.14	
8293.72	6475.78	2929.65	3158.35	9322.53	8723.04	7591.11	7005.58	3131.13	2814.85	2550.0	2625.48	2605.92	2323.46	3558.05	6225.06	8099.47	10213.85	8054.22	6166.06	2160.43	2461.67	1858.26	1750.0	2117.4	2522.69	6755.6	7361.05	8523.58	9136.17	7917.06	5985.79	1573.79	1967.03	1375.39	706.63	5818.26	7791.17	8967.0	8342.0	7150.0	6525.0	1817.0	1192.0		625.0	1376.53	708.84	2863.08	5818.53	7791.37	9993.01	7800.09	5830.21	799.03	1425.07	1015.2	800.0	1435.57	1985.32	6573.86	7194.62	8380.27	9002.62	7863.73	5915.08	1278.8	1740.03	2610.21	2328.27	6226.85	8100.85	9322.53	8723.04	7591.11	7005.58	3131.13	2814.85	2550.0	2625.48	3162.88	2934.53	6477.99	8295.45	10411.66	8355.68	6554.95	4091.42	3100.72	3317.65	3407.8	3350.0	3555.75	3811.04	7334.72	7895.89	8989.52	9572.33	8602.43	6866.71	3714.68	3897.59	4973.9	4831.91	7529.95	9140.59	10315.87	9777.47	8782.51	8281.64	5414.01	5237.45	5100.0	5138.15	5578.34	5452.11	7942.19	9483.06	11399.57	9581.15	8059.05	6187.67	5620.98	5743.5	5933.01	5900.0	6019.21	6173.45	8796.91	9269.98	10217.58	10733.92	6352.93	6242.38	8504.13	9958.43	
8883.0	7041.93	3125.25	2948.02	9925.17	9322.53	8182.49	7591.11	3530.7	3131.13	2625.48	2550.0	2346.58	2565.7	4073.59	6812.08	8701.92	10825.65	8659.81	6758.21	2419.05	2185.28	1750.0	1858.26	2522.69	3004.31	7361.05	7969.51	9136.17	9750.33	8532.39	6594.15	1913.43	1607.74	779.31	1297.57	6442.46	8415.71	9592.0	8967.0	7775.0	7150.0	2442.0	1817.0	625.0		781.31	1298.78	3483.04	6442.71	8415.9	10617.54	8423.97	6453.25	1350.12	863.97	800.0	1015.2	1985.32	2569.7	7194.62	7816.05	9002.62	9625.3	8482.94	6530.03	1679.2	1320.35	2351.35	2570.06	6813.72	8703.2	9925.17	9322.53	8182.49	7591.11	3530.7	3131.13	2625.48	2550.0	2952.87	3129.83	7043.97	8884.61	11012.47	8940.88	7114.8	4546.88	3286.16	3118.08	3350.0	3407.8	3811.04	4145.58	7895.89	8466.0	9572.33	10160.17	9171.9	7403.03	3870.81	3729.19	4843.07	4952.95	8022.05	9678.44	10863.54	10315.87	9298.42	8782.51	5654.5	5414.01	5138.15	5100.0	5462.0	5559.66	8410.2	10002.52	11950.82	10095.56	8520.65	6497.82	5725.37	5630.58	5900.0	5933.01	6173.45	6385.4	9269.98	9760.15	10733.92	11261.28	6251.03	6336.54	8942.78	10454.29	
9661.59	7823.24	3739.15	3175.0	10697.78	10097.0	8960.38	8370.57	4263.2	3823.51	3162.88	2952.87	2550.0	3225.39	4848.39	7591.11	9474.6	11590.16	9430.27	7535.71	3092.74	2380.0	2185.28	2461.67	3267.3	3772.38	8131.57	8737.52	9899.77	10511.83	9292.24	7362.24	2642.09	1755.0	625.0	2071.53	7177.26	9146.38	10311.81	9687.12	8495.84	7871.31	3172.68	2551.52	1376.53	781.31		1975.0	4175.87	7150.0	9125.0	11325.32	9126.58	7152.02	1982.3	170.0	863.97	1425.07	2578.03	3194.04	7879.94	8503.84	9694.14	10318.4	9159.57	7194.06	2129.0	795.0	1925.0	2757.94	7404.6	9325.84	10546.54	9936.62	8779.26	8176.4	3868.06	3377.31	2605.92	2346.58	2550.0	3225.39	7591.11	9474.6	11627.5	9521.77	7649.9	4936.99	3361.4	2720.0	3118.08	3317.65	3952.5	4379.25	8430.27	9016.17	10146.54	10744.56	9718.78	7893.76	3884.54	3345.0	4475.0	4891.45	8434.93	10163.23	11363.56	10799.88	9745.58	9206.22	5732.61	5413.62	4969.09	4838.12	5100.0	5469.06	8782.51	10453.5	12455.51	10537.48	8882.31	6656.94	5627.92	5270.0	5630.58	5743.5	6132.15	6415.52	9646.27	10162.3	11177.36	11722.9	5895.0	6217.05	9266.8	10863.55	
7823.24	6071.35	3175.0	3739.15	8810.81	8222.29	7117.12	6549.83	3099.25	2918.64	2934.53	3129.83	3225.39	2550.0	3303.97	5769.15	7591.11	9669.47	7535.71	5696.05	2380.0	3092.74	2419.05	2160.43	2138.8	2379.36	6241.5	6834.43	7978.85	8584.08	7362.24	5464.49	1755.0	2642.09	2071.53	625.0	5212.6	7177.26	8337.95	7713.43	6522.61	5898.42	1223.25	639.9	708.84	1298.78	1975.0		2201.64	5175.0	7150.0	9350.39	7152.02	5177.79	170.0	1982.3	1350.12	799.03	738.56	1277.63	5909.93	6533.03	7722.25	8346.1	7194.06	5235.71	795.0	2129.0	2757.94	1925.0	5521.44	7404.6	8626.55	8024.53	6887.7	6299.79	2528.31	2303.36	2323.46	2565.7	3225.39	2550.0	5769.15	7591.11	9714.2	7649.9	5846.28	3432.67	2720.0	3361.4	3286.16	3100.72	3085.69	3257.05	6625.96	7187.24	8283.06	8867.55	7893.76	6161.95	3345.0	3884.54	4891.45	4475.0	6841.51	8434.93	9608.25	9071.61	8083.41	7588.7	4928.83	4817.31	4826.95	4948.11	5469.06	5100.0	7265.72	8782.51	10691.43	8882.31	7386.04	5632.43	5270.0	5627.92	5725.37	5620.98	5612.71	5708.71	8116.92	8581.23	9517.88	10030.68	6217.05	5895.0	7844.21	9266.8	
5927.07	4413.41	3932.89	5297.0	6804.7	6247.36	5227.02	4724.26	3120.71	3376.68	4091.42	4546.88	4936.99	3432.67	2550.0	3974.15	5607.65	7591.11	5529.8	3863.53	3303.97	4848.39	4073.59	3558.05	2705.91	2378.83	4270.67	4820.97	5911.81	6497.99	5280.92	3498.03	2868.03	4562.48	4234.94	2311.73	3058.55	5000.66	6145.03	5521.51	4333.5	3711.62	1093.77	1690.99	2863.08	3483.04	4175.87	2201.64		2976.21	4950.73	7150.0	4950.73	2976.21	2201.64	4175.87	3483.04	2863.08	1690.99	1093.77	3711.62	4333.5	5521.51	6145.03	5000.66	3058.55	2311.73	4234.94	4562.48	2868.03	3498.03	5280.92	6497.99	5911.81	4820.97	4270.67	2378.83	2705.91	3558.05	4073.59	4848.39	3303.97	3863.53	5529.8	7591.11	5607.65	3974.15	2550.0	3432.67	4936.99	4546.88	4091.42	3376.68	3120.71	4724.26	5227.02	6247.36	6804.7	5927.07	4413.41	3932.89	5297.0	6058.28	4910.41	5303.09	6616.24	7726.02	7239.96	6380.38	5975.46	4808.98	4978.9	5488.83	5836.23	6525.4	5476.33	5831.02	7046.47	8782.51	7168.45	5977.86	5100.0	5632.43	6656.94	6497.82	6187.67	5740.16	5593.42	6623.15	6990.65	7783.13	8237.2	7154.49	6212.58	6527.38	7632.73	
3739.15	3175.0	6071.35	7823.24	4263.2	3823.51	3162.88	2952.87	4914.5	5434.53	6477.99	7043.97	7591.11	5769.15	3863.53	2550.0	3225.39	4848.39	3092.74	2380.0	5696.05	7535.71	6758.21	6166.06	5058.67	4495.36	2185.28	2461.67	3267.3	3772.38	2642.09	1755.0	5464.49	7362.24	7177.26	5212.6	625.0	2071.53	3172.68	2551.52	1376.53	781.31	4005.41	4628.73	5818.53	6442.71	7150.0	5175.0	2976.21		1975.0	4175.87	1982.3	170.0	5177.79	7152.02	6453.25	5830.21	4643.4	4022.35	863.97	1425.07	2578.03	3194.04	2129.0	795.0	5235.71	7194.06	7404.6	5521.44	1925.0	2757.94	3868.06	3377.31	2605.92	2346.58	4575.95	5130.41	6225.06	6812.08	7591.11	5769.15	2550.0	3225.39	4936.99	3361.4	2720.0	3974.15	5846.28	7649.9	7114.8	6554.95	5526.04	5015.5	3118.08	3317.65	3952.5	4379.25	3884.54	3345.0	6161.95	7893.76	8434.93	6841.51	4475.0	4891.45	5732.61	5413.62	4969.09	4838.12	6232.2	6649.97	7526.77	8019.07	8782.51	7265.72	5100.0	5469.06	6656.94	5627.92	5270.0	5977.86	7386.04	8882.31	8520.65	8059.05	7246.94	6865.59	5630.58	5743.5	6132.15	6415.52	9266.8	7844.21	5895.0	6217.05	
3175.0	3739.15	7823.24	9661.59	3099.25	2918.64	2934.53	3129.83	6620.06	7188.59	8295.45	8884.61	9474.6	7591.11	5529.8	3225.39	2550.0	3303.97	2380.0	3092.74	7535.71	9430.27	8659.81	8054.22	6908.83	6315.16	2419.05	2160.43	2138.8	2379.36	1755.0	2642.09	7362.24	9292.24	9146.38	7177.26	2071.53	625.0	1223.25	639.9	708.84	1298.78	5976.31	6600.52	7791.37	8415.9	9125.0	7150.0	4950.73	1975.0		2201.64	170.0	1982.3	7152.02	9126.58	8423.97	7800.09	6610.81	5987.67	1350.12	799.03	738.56	1277.63	795.0	2129.0	7194.06	9159.57	9325.84	7404.6	2757.94	1925.0	2528.31	2303.36	2323.46	2565.7	6372.77	6961.53	8099.47	8701.92	9474.6	7591.11	3225.39	2550.0	3432.67	2720.0	3361.4	5607.65	7649.9	9521.77	8940.88	8355.68	7258.02	6695.39	3286.16	3100.72	3085.69	3257.05	3345.0	3884.54	7893.76	9718.78	10163.23	8434.93	4891.45	4475.0	4928.83	4817.31	4826.95	4948.11	7649.4	8146.4	9137.97	9675.97	10453.5	8782.51	5469.06	5100.0	5632.43	5270.0	5627.92	7168.45	8882.31	10537.48	10095.56	9581.15	8640.59	8173.69	5725.37	5620.98	5612.71	5708.71	10863.55	9266.8	6217.05	5895.0	
3932.89	5297.0	9902.03	11784.87	3120.71	3376.68	4091.42	4546.88	8684.4	9274.66	10411.66	11012.47	11627.5	9714.2	7591.11	4936.99	3432.67	2550.0	3303.97	4848.39	9669.47	11590.16	10825.65	10213.85	9052.04	8446.23	4073.59	3558.05	2705.91	2378.83	2868.03	4562.48	9529.33	11473.5	11347.23	9376.92	4234.94	2311.73	1093.77	1690.99	2863.08	3483.04	8177.79	8802.09	9993.01	10617.54	11325.32	9350.39	7150.0	4175.87	2201.64		2201.64	4175.87	9350.39	11325.32	10617.54	9993.01	8802.09	8177.79	3483.04	2863.08	1690.99	1093.77	2311.73	4234.94	9376.92	11347.23	11473.5	9529.33	4562.48	2868.03	2378.83	2705.91	3558.05	4073.59	8446.23	9052.04	10213.85	10825.65	11590.16	9669.47	4848.39	3303.97	2550.0	3432.67	4936.99	7591.11	9714.2	11627.5	11012.47	10411.66	9274.66	8684.4	4546.88	4091.42	3376.68	3120.71	3932.89	5297.0	9902.03	11784.87	12146.1	10329.31	6058.28	4910.41	4808.98	4978.9	5488.83	5836.23	9423.71	9970.3	11035.86	11604.4	12385.71	10610.03	6525.4	5476.33	5100.0	5632.43	6656.94	8782.51	10691.43	12455.51	11950.82	11399.57	10371.44	9847.14	6497.82	6187.67	5740.16	5593.42	12728.38	11008.12	7154.49	6212.58	
3345.0	3884.54	7893.76	9718.78	3257.05	3085.69	3100.72	3286.16	6695.39	7258.02	8355.68	8940.88	9521.77	7649.9	5607.65	3361.4	2720.0	3432.67	2550.0	3225.39	7591.11	9474.6	8701.92	8099.47	6961.53	6372.77	2565.7	2323.46	2303.36	2528.31	1925.0	2757.94	7404.6	9325.84	9159.57	7194.06	2129.0	795.0	1277.63	738.56	799.03	1350.12	5987.67	6610.81	7800.09	8423.97	9126.58	7152.02	4950.73	1982.3	170.0	2201.64		1975.0	7150.0	9125.0	8415.9	7791.37	6600.52	5976.31	1298.78	708.84	639.9	1223.25	625.0	2071.53	7177.26	9146.38	9292.24	7362.24	2642.09	1755.0	2379.36	2138.8	2160.43	2419.05	6315.16	6908.83	8054.22	8659.81	9430.27	7535.71	3092.74	2380.0	3303.97	2550.0	3225.39	5529.8	7591.11	9474.6	8884.61	8295.45	7188.59	6620.06	3129.83	2934.53	2918.64	3099.25	3175.0	3739.15	7823.24	9661.59	10089.53	8345.99	4736.42	4305.0	4763.96	4648.49	4658.48	4783.91	7544.22	8047.72	9050.11	9593.04	10371.62	8684.89	5310.89	4930.0	5476.33	5100.0	5469.06	7046.47	8782.51	10453.5	10002.52	9483.06	8531.7	8058.49	5559.66	5452.11	5443.57	5542.5	10772.24	9159.59	6056.09	5725.0	
3884.54	3345.0	6161.95	7893.76	4379.25	3952.5	3317.65	3118.08	5015.5	5526.04	6554.95	7114.8	7649.9	5846.28	3974.15	2720.0	3361.4	4936.99	3225.39	2550.0	5769.15	7591.11	6812.08	6225.06	5130.41	4575.95	2346.58	2605.92	3377.31	3868.06	2757.94	1925.0	5521.44	7404.6	7194.06	5235.71	795.0	2129.0	3194.04	2578.03	1425.07	863.97	4022.35	4643.4	5830.21	6453.25	7152.02	5177.79	2976.21	170.0	1982.3	4175.87	1975.0		5175.0	7150.0	6442.71	5818.53	4628.73	4005.41	781.31	1376.53	2551.52	3172.68	2071.53	625.0	5212.6	7177.26	7362.24	5464.49	1755.0	2642.09	3772.38	3267.3	2461.67	2185.28	4495.36	5058.67	6166.06	6758.21	7535.71	5696.05	2380.0	3092.74	4848.39	3225.39	2550.0	3863.53	5769.15	7591.11	7043.97	6477.99	5434.53	4914.5	2952.87	3162.88	3823.51	4263.2	3739.15	3175.0	6071.35	7823.24	8345.99	6731.54	4305.0	4736.42	5591.5	5263.96	4805.6	4670.06	6102.64	6528.72	7419.86	7918.8	8684.89	7147.41	4930.0	5310.89	6525.4	5469.06	5100.0	5831.02	7265.72	8782.51	8410.2	7942.19	7116.75	6728.02	5462.0	5578.34	5977.73	6268.08	9159.59	7717.27	5725.0	6056.09	
7893.76	6161.95	3345.0	3884.54	8867.55	8283.06	7187.24	6625.96	3257.05	3085.69	3100.72	3286.16	3361.4	2720.0	3432.67	5846.28	7649.9	9714.2	7591.11	5769.15	2550.0	3225.39	2565.7	2323.46	2303.36	2528.31	6299.79	6887.7	8024.53	8626.55	7404.6	5521.44	1925.0	2757.94	2129.0	795.0	5235.71	7194.06	8346.1	7722.25	6533.03	5909.93	1277.63	738.56	799.03	1350.12	1982.3	170.0	2201.64	5177.79	7152.02	9350.39	7150.0	5175.0		1975.0	1298.78	708.84	639.9	1223.25	5898.42	6522.61	7713.43	8337.95	7177.26	5212.6	625.0	2071.53	2642.09	1755.0	5464.49	7362.24	8584.08	7978.85	6834.43	6241.5	2379.36	2138.8	2160.43	2419.05	3092.74	2380.0	5696.05	7535.71	9669.47	7591.11	5769.15	3303.97	2550.0	3225.39	3129.83	2934.53	2918.64	3099.25	6549.83	7117.12	8222.29	8810.81	7823.24	6071.35	3175.0	3739.15	4736.42	4305.0	6731.54	8345.99	9524.73	8983.1	7983.95	7482.67	4763.96	4648.49	4658.48	4783.91	5310.89	4930.0	7147.41	8684.89	10610.03	8782.51	7265.72	5476.33	5100.0	5469.06	5559.66	5452.11	5443.57	5542.5	8000.9	8471.57	9419.13	9937.02	6056.09	5725.0	7717.27	9159.59	
9718.78	7893.76	3884.54	3345.0	10744.56	10146.54	9016.17	8430.27	4379.25	3952.5	3317.65	3118.08	2720.0	3361.4	4936.99	7649.9	9521.77	11627.5	9474.6	7591.11	3225.39	2550.0	2346.58	2605.92	3377.31	3868.06	8176.4	8779.26	9936.62	10546.54	9325.84	7404.6	2757.94	1925.0	795.0	2129.0	7194.06	9159.57	10318.4	9694.14	8503.84	7879.94	3194.04	2578.03	1425.07	863.97	170.0	1982.3	4175.87	7152.02	9126.58	11325.32	9125.0	7150.0	1975.0		781.31	1376.53	2551.52	3172.68	7871.31	8495.84	9687.12	10311.81	9146.38	7177.26	2071.53	625.0	1755.0	2642.09	7362.24	9292.24	10511.83	9899.77	8737.52	8131.57	3772.38	3267.3	2461.67	2185.28	2380.0	3092.74	7535.71	9430.27	11590.16	9474.6	7591.11	4848.39	3225.39	2550.0	2952.87	3162.88	3823.51	4263.2	8370.57	8960.38	10097.0	10697.78	9661.59	7823.24	3739.15	3175.0	4305.0	4736.42	8345.99	10089.53	11293.03	10725.64	9663.25	9119.02	5591.5	5263.96	4805.6	4670.06	4930.0	5310.89	8684.89	10371.62	12385.71	10453.5	8782.51	6525.4	5469.06	5100.0	5462.0	5578.34	5977.73	6268.08	9548.85	10069.87	11093.39	11642.87	5725.0	6056.09	9159.59	10772.24	
9171.9	7403.03	3870.81	3729.19	10160.17	9572.33	8466.0	7895.89	4145.58	3811.04	3407.8	3350.0	3118.08	3286.16	4546.88	7114.8	8940.88	11012.47	8884.61	7043.97	3129.83	2952.87	2550.0	2625.48	3131.13	3530.7	7591.11	8182.49	9322.53	9925.17	8703.2	6813.72	2570.06	2351.35	1320.35	1679.2	6530.03	8482.94	9625.3	9002.62	7816.05	7194.62	2569.7	1985.32	1015.2	800.0	863.97	1350.12	3483.04	6453.25	8423.97	10617.54	8415.9	6442.71	1298.78	781.31		625.0	1817.0	2442.0	7150.0	7775.0	8967.0	9592.0	8415.71	6442.46	1297.57	779.31	1607.74	1913.43	6594.15	8532.39	9750.33	9136.17	7969.51	7361.05	3004.31	2522.69	1858.26	1750.0	2185.28	2419.05	6758.21	8659.81	10825.65	8701.92	6812.08	4073.59	2565.7	2346.58	2550.0	2625.48	3131.13	3530.7	7591.11	8182.49	9322.53	9925.17	8883.0	7041.93	3125.25	2948.02	4053.56	4184.22	7571.61	9308.5	10511.73	9944.7	8884.85	8343.41	4945.03	4668.14	4345.18	4300.0	4670.06	4783.91	7918.8	9593.04	11604.4	9675.97	8019.07	5836.23	4948.11	4838.12	5100.0	5138.15	5414.01	5654.5	8782.51	9298.42	10315.87	10863.54	5457.04	5554.79	8406.98	9999.81	
8602.43	6866.71	3714.68	3897.59	9572.33	8989.52	7895.89	7334.72	3811.04	3555.75	3350.0	3407.8	3317.65	3100.72	4091.42	6554.95	8355.68	10411.66	8295.45	6477.99	2934.53	3162.88	2625.48	2550.0	2814.85	3131.13	7005.58	7591.11	8723.04	9322.53	8100.85	6226.85	2328.27	2610.21	1740.03	1278.8	5915.08	7863.73	9002.62	8380.27	7194.62	6573.86	1985.32	1435.57	800.0	1015.2	1425.07	799.03	2863.08	5830.21	7800.09	9993.01	7791.37	5818.53	708.84	1376.53	625.0		1192.0	1817.0	6525.0	7150.0	8342.0	8967.0	7791.17	5818.26	706.63	1375.39	1967.03	1573.79	5985.79	7917.06	9136.17	8523.58	7361.05	6755.6	2522.69	2117.4	1750.0	1858.26	2461.67	2160.43	6166.06	8054.22	10213.85	8099.47	6225.06	3558.05	2323.46	2605.92	2625.48	2550.0	2814.85	3131.13	7005.58	7591.11	8723.04	9322.53	8293.72	6475.78	2929.65	3158.35	4209.0	4040.21	7048.13	8747.93	9944.7	9385.04	8343.41	7814.45	4668.14	4462.16	4300.0	4345.18	4805.6	4658.48	7419.86	9050.11	11035.86	9137.97	7526.77	5488.83	4826.95	4969.09	5138.15	5100.0	5237.45	5414.01	8281.64	8782.51	9777.47	10315.87	5573.48	5447.14	7938.78	9480.21	
7540.77	5892.5	3702.14	4450.46	8466.0	7895.89	6835.22	6297.89	3407.8	3350.0	3555.75	3811.04	3952.5	3085.69	3376.68	5526.04	7258.02	9274.66	7188.59	5434.53	2918.64	3823.51	3131.13	2814.85	2550.0	2625.48	5911.29	6480.76	7591.11	8182.49	6963.13	5132.59	2308.21	3380.62	2764.62	1241.91	4749.53	6685.79	7816.05	7194.62	6011.47	5392.67	1015.2	800.0	1435.57	1985.32	2578.03	738.56	1690.99	4643.4	6610.81	8802.09	6600.52	4628.73	639.9	2551.52	1817.0	1192.0		625.0	5333.0	5958.0	7150.0	7775.0	6600.28	4628.39	637.46	2550.91	2912.84	1543.97	4837.31	6748.43	7969.51	7361.05	6209.69	5612.79	1858.26	1750.0	2117.4	2522.69	3267.3	2138.8	5058.67	6908.83	9052.04	6961.53	5130.41	2705.91	2303.36	3377.31	3131.13	2814.85	2550.0	2625.48	5911.29	6480.76	7591.11	8182.49	7186.6	5431.9	2913.73	3819.77	4725.58	4028.69	6102.95	7706.34	8884.85	8343.41	7347.64	6850.61	4345.18	4300.0	4462.16	4668.14	5263.96	4648.49	6528.72	8047.72	9970.3	8146.4	6649.97	4978.9	4817.31	5413.62	5414.01	5237.45	5100.0	5138.15	7379.08	7842.69	8782.51	9298.42	5973.2	5438.6	7112.95	8528.53	
7000.9	5416.61	3846.13	4833.45	7895.89	7334.72	6297.89	5778.21	3350.0	3407.8	3811.04	4145.58	4379.25	3257.05	3120.71	5015.5	6695.39	8684.4	6620.06	4914.5	3099.25	4263.2	3530.7	3131.13	2625.48	2550.0	5354.23	5911.29	7005.58	7591.11	6374.53	4578.39	2532.73	3870.95	3346.45	1621.49	4144.41	6070.35	7194.62	6573.86	5392.67	4775.49	800.0	1015.2	1985.32	2569.7	3194.04	1277.63	1093.77	4022.35	5987.67	8177.79	5976.31	4005.41	1223.25	3172.68	2442.0	1817.0	625.0		4708.0	5333.0	6525.0	7150.0	5976.05	4005.02	1221.98	3172.18	3469.91	1862.99	4244.72	6139.27	7361.05	6755.6	5612.79	5022.72	1750.0	1858.26	2522.69	3004.31	3772.38	2379.36	4495.36	6315.16	8446.23	6372.77	4575.95	2378.83	2528.31	3868.06	3530.7	3131.13	2625.48	2550.0	5354.23	5911.29	7005.58	7591.11	6617.9	4911.58	3094.63	4259.84	5087.9	4161.4	5644.83	7178.94	8343.41	7814.45	6850.61	6376.15	4300.0	4345.18	4668.14	4945.03	5591.5	4763.96	6102.64	7544.22	9423.71	7649.4	6232.2	4808.98	4928.83	5732.61	5654.5	5414.01	5138.15	5100.0	6940.84	7379.08	8281.64	8782.51	6263.76	5537.62	6724.0	8055.13	
3870.81	3729.19	6934.53	8674.9	4145.58	3811.04	3407.8	3350.0	5778.21	6297.89	7334.72	7895.89	8430.27	6625.96	4724.26	3118.08	3286.16	4546.88	3129.83	2952.87	6549.83	8370.57	7591.11	7005.58	5911.29	5354.23	2550.0	2625.48	3131.13	3530.7	2570.06	2351.35	6301.56	8177.76	7942.94	5993.68	1320.35	1679.2	2569.7	1985.32	1015.2	800.0	4775.49	5392.67	6573.86	7194.62	7879.94	5909.93	3711.62	863.97	1350.12	3483.04	1298.78	781.31	5898.42	7871.31	7150.0	6525.0	5333.0	4708.0		625.0	1817.0	2442.0	1297.57	779.31	5898.15	7871.11	7995.74	6063.47	1607.74	1913.43	3004.31	2522.69	1858.26	1750.0	5022.72	5612.79	6755.6	7361.05	8131.57	6241.5	2185.28	2419.05	4073.59	2565.7	2346.58	4270.67	6299.79	8176.4	7591.11	7005.58	5911.29	5354.23	2550.0	2625.48	3131.13	3530.7	3125.25	2948.02	6547.65	8368.86	8819.2	7114.23	4053.56	4184.22	4945.03	4668.14	4345.18	4300.0	6376.15	6850.61	7814.45	8343.41	9119.02	7482.67	4670.06	4783.91	5836.23	4948.11	4838.12	5975.46	7588.7	9206.22	8782.51	8281.64	7379.08	6940.84	5100.0	5138.15	5414.01	5654.5	9546.01	7997.51	5457.04	5554.79	
3714.68	3897.59	7472.67	9245.31	3811.04	3555.75	3350.0	3407.8	6297.89	6835.22	7895.89	8466.0	9016.17	7187.24	5227.02	3317.65	3100.72	4091.42	2934.53	3162.88	7117.12	8960.38	8182.49	7591.11	6480.76	5911.29	2625.48	2550.0	2814.85	3131.13	2328.27	2610.21	6889.33	8780.53	8562.25	6608.88	1740.03	1278.8	1985.32	1435.57	800.0	1015.2	5392.67	6011.47	7194.62	7816.05	8503.84	6533.03	4333.5	1425.07	799.03	2863.08	708.84	1376.53	6522.61	8495.84	7775.0	7150.0	5958.0	5333.0	625.0		1192.0	1817.0	706.63	1375.39	6522.37	8495.66	8611.25	6672.24	1967.03	1573.79	2522.69	2117.4	1750.0	1858.26	5612.79	6209.69	7361.05	7969.51	8737.52	6834.43	2461.67	2160.43	3558.05	2323.46	2605.92	4820.97	6887.7	8779.26	8182.49	7591.11	6480.76	5911.29	2625.48	2550.0	2814.85	3131.13	2929.65	3158.35	7115.11	8958.78	9380.84	7639.72	4209.0	4040.21	4668.14	4462.16	4300.0	4345.18	6850.61	7347.64	8343.41	8884.85	9663.25	7983.95	4805.6	4658.48	5488.83	4826.95	4969.09	6380.38	8083.41	9745.58	9298.42	8782.51	7842.69	7379.08	5138.15	5100.0	5237.45	5414.01	10067.18	8468.37	5573.48	5447.14	
3702.14	4450.46	8531.91	10350.69	3407.8	3350.0	3555.75	3811.04	7334.72	7895.89	8989.52	9572.33	10146.54	8283.06	6247.36	3952.5	3085.69	3376.68	2918.64	3823.51	8222.29	10097.0	9322.53	8723.04	7591.11	7005.58	3131.13	2814.85	2550.0	2625.48	2308.21	3380.62	8025.92	9937.74	9745.42	7786.52	2764.62	1241.91	1015.2	800.0	1435.57	1985.32	6573.86	7194.62	8380.27	9002.62	9694.14	7722.25	5521.51	2578.03	738.56	1690.99	639.9	2551.52	7713.43	9687.12	8967.0	8342.0	7150.0	6525.0	1817.0	1192.0		625.0	637.46	2550.91	7713.23	9686.96	9788.5	7840.37	2912.84	1543.97	1858.26	1750.0	2117.4	2522.69	6755.6	7361.05	8523.58	9136.17	9899.77	7978.85	3267.3	2138.8	2705.91	2303.36	3377.31	5911.81	8024.53	9936.62	9322.53	8723.04	7591.11	7005.58	3131.13	2814.85	2550.0	2625.48	2913.73	3819.77	8220.55	10095.58	10471.93	8678.59	4725.58	4028.69	4345.18	4300.0	4462.16	4668.14	7814.45	8343.41	9385.04	9944.7	10725.64	8983.1	5263.96	4648.49	4978.9	4817.31	5413.62	7239.96	9071.61	10799.88	10315.87	9777.47	8782.51	8281.64	5414.01	5237.45	5100.0	5138.15	11090.95	9416.26	5973.2	5438.6	
3846.13	4833.45	9100.43	10937.54	3350.0	3407.8	3811.04	4145.58	7895.89	8466.0	9572.33	10160.17	10744.56	8867.55	6804.7	4379.25	3257.05	3120.71	3099.25	4263.2	8810.81	10697.78	9925.17	9322.53	8182.49	7591.11	3530.7	3131.13	2625.48	2550.0	2532.73	3870.95	8627.85	10547.6	10366.6	8405.61	3346.45	1621.49	800.0	1015.2	1985.32	2569.7	7194.62	7816.05	9002.62	9625.3	10318.4	8346.1	6145.03	3194.04	1277.63	1093.77	1223.25	3172.68	8337.95	10311.81	9592.0	8967.0	7775.0	7150.0	2442.0	1817.0	625.0		1221.98	3172.18	8337.76	10311.66	10407.11	8455.52	3469.91	1862.99	1750.0	1858.26	2522.69	3004.31	7361.05	7969.51	9136.17	9750.33	10511.83	8584.08	3772.38	2379.36	2378.83	2528.31	3868.06	6497.99	8626.55	10546.54	9925.17	9322.53	8182.49	7591.11	3530.7	3131.13	2625.48	2550.0	3094.63	4259.84	8809.19	10696.44	11052.35	9238.09	5087.9	4161.4	4300.0	4345.18	4668.14	4945.03	8343.41	8884.85	9944.7	10511.73	11293.03	9524.73	5591.5	4763.96	4808.98	4928.83	5732.61	7726.02	9608.25	11363.56	10863.54	10315.87	9298.42	8782.51	5654.5	5414.01	5138.15	5100.0	11640.55	9934.3	6263.76	5537.62	
3970.0	4434.13	8178.23	9951.21	3846.13	3702.14	3714.68	3870.81	7000.9	7540.77	8602.43	9171.9	9718.78	7893.76	5927.07	3884.54	3345.0	3932.89	3175.0	3739.15	7823.24	9661.59	8883.0	8293.72	7186.6	6617.9	3125.25	2929.65	2913.73	3094.63	2550.0	3225.39	7591.11	9474.6	9234.83	7289.64	2432.49	1420.0	1621.49	1241.91	1278.8	1679.2	6070.35	6685.79	7863.73	8482.94	9159.57	7194.06	5000.66	2129.0	795.0	2311.73	625.0	2071.53	7177.26	9146.38	8415.71	7791.17	6600.28	5976.05	1297.57	706.63	637.46	1221.98		1975.0	7150.0	9125.0	9194.7	7238.74	2275.42	1130.0	1862.99	1543.97	1573.79	1913.43	6139.27	6748.43	7917.06	8532.39	9292.24	7362.24	2642.09	1755.0	2868.03	1925.0	2757.94	5280.92	7404.6	9325.84	8703.2	8100.85	6963.13	6374.53	2570.06	2328.27	2308.21	2532.73	2550.0	3225.39	7591.11	9474.6	9839.11	8041.45	4176.48	3680.0	4161.4	4028.69	4040.21	4184.22	7178.94	7706.34	8747.93	9308.5	10089.53	8345.99	4736.42	4305.0	4910.41	4475.0	4891.45	6616.24	8434.93	10163.23	9678.44	9140.59	8149.34	7652.52	4952.95	4831.91	4822.28	4933.68	10453.5	8782.51	5469.06	5100.0	
4434.13	3970.0	6522.39	8178.23	4833.45	4450.46	3897.59	3729.19	5416.61	5892.5	6866.71	7403.03	7893.76	6161.95	4413.41	3345.0	3884.54	5297.0	3739.15	3175.0	6071.35	7823.24	7041.93	6475.78	5431.9	4911.58	2948.02	3158.35	3819.77	4259.84	3225.39	2550.0	5769.15	7591.11	7289.64	5366.29	1420.0	2432.49	3346.45	2764.62	1740.03	1320.35	4144.41	4749.53	5915.08	6530.03	7194.06	5235.71	3058.55	795.0	2129.0	4234.94	2071.53	625.0	5212.6	7177.26	6442.46	5818.26	4628.39	4005.02	779.31	1375.39	2550.91	3172.18	1975.0		5175.0	7150.0	7238.74	5296.94	1130.0	2275.42	3469.91	2912.84	1967.03	1607.74	4244.72	4837.31	5985.79	6594.15	7362.24	5464.49	1755.0	2642.09	4562.48	2757.94	1925.0	3498.03	5521.44	7404.6	6813.72	6226.85	5132.59	4578.39	2351.35	2610.21	3380.62	3870.95	3225.39	2550.0	5769.15	7591.11	8041.45	6350.04	3680.0	4176.48	5087.9	4725.58	4209.0	4053.56	5644.83	6102.95	7048.13	7571.61	8345.99	6731.54	4305.0	4736.42	6058.28	4891.45	4475.0	5303.09	6841.51	8434.93	8022.05	7529.95	6653.57	6236.04	4843.07	4973.9	5418.04	5736.79	8782.51	7265.72	5100.0	5469.06	
8178.23	6522.39	3970.0	4434.13	9100.43	8531.91	7472.67	6934.53	3846.13	3702.14	3714.68	3870.81	3884.54	3345.0	3932.89	6161.95	7893.76	9902.03	7823.24	6071.35	3175.0	3739.15	3125.25	2929.65	2913.73	3094.63	6547.65	7115.11	8220.55	8809.19	7591.11	5769.15	2550.0	3225.39	2432.49	1420.0	5366.29	7289.64	8405.61	7786.52	6608.88	5993.68	1621.49	1241.91	1278.8	1679.2	2129.0	795.0	2311.73	5235.71	7194.06	9376.92	7177.26	5212.6	625.0	2071.53	1297.57	706.63	637.46	1221.98	5898.15	6522.37	7713.23	8337.76	7150.0	5175.0		1975.0	2275.42	1130.0	5296.94	7238.74	8455.52	7840.37	6672.24	6063.47	1862.99	1543.97	1573.79	1913.43	2642.09	1755.0	5464.49	7362.24	9529.33	7404.6	5521.44	2868.03	1925.0	2757.94	2570.06	2328.27	2308.21	2532.73	6301.56	6889.33	8025.92	8627.85	7591.11	5769.15	2550.0	3225.39	4176.48	3680.0	6350.04	8041.45	9238.09	8678.59	7639.72	7114.23	4161.4	4028.69	4040.21	4184.22	4736.42	4305.0	6731.54	8345.99	10329.31	8434.93	6841.51	4910.41	4475.0	4891.45	4952.95	4831.91	4822.28	4933.68	7591.85	8086.37	9074.25	9610.74	5469.06	5100.0	7265.72	8782.51	
9951.21	8178.23	4434.13	3970.0	10937.54	10350.69	9245.31	8674.9	4833.45	4450.46	3897.59	3729.19	3345.0	3884.54	5297.0	7893.76	9718.78	11784.87	9661.59	7823.24	3739.15	3175.0	2948.02	3158.35	3819.77	4259.84	8368.86	8958.78	10095.58	10696.44	9474.6	7591.11	3225.39	2550.0	1420.0	2432.49	7289.64	9234.83	10366.6	9745.42	8562.25	7942.94	3346.45	2764.62	1740.03	1320.35	795.0	2129.0	4234.94	7194.06	9159.57	11347.23	9146.38	7177.26	2071.53	625.0	779.31	1375.39	2550.91	3172.18	7871.11	8495.66	9686.96	10311.66	9125.0	7150.0	1975.0		1130.0	2275.42	7238.74	9194.7	10407.11	9788.5	8611.25	7995.74	3469.91	2912.84	1967.03	1607.74	1755.0	2642.09	7362.24	9292.24	11473.5	9325.84	7404.6	4562.48	2757.94	1925.0	2351.35	2610.21	3380.62	3870.95	8177.76	8780.53	9937.74	10547.6	9474.6	7591.11	3225.39	2550.0	3680.0	4176.48	8041.45	9839.11	11052.35	10471.93	9380.84	8819.2	5087.9	4725.58	4209.0	4053.56	4305.0	4736.42	8345.99	10089.53	12146.1	10163.23	8434.93	6058.28	4891.45	4475.0	4843.07	4973.9	5418.04	5736.79	9208.82	9748.04	10802.09	11365.67	5100.0	5469.06	8782.51	10453.5	
10453.5	8782.51	5469.06	5100.0	11365.67	10802.09	9748.04	9208.82	5736.79	5418.04	4973.9	4843.07	4475.0	4891.45	6058.28	8434.93	10163.23	12146.1	10089.53	8345.99	4736.42	4305.0	4053.56	4209.0	4725.58	5087.9	8819.2	9380.84	10471.93	11052.35	9839.11	8041.45	4176.48	3680.0	2550.0	3225.39	7591.11	9474.6	10547.6	9937.74	8780.53	8177.76	3870.95	3380.62	2610.21	2351.35	1925.0	2757.94	4562.48	7404.6	9325.84	11473.5	9292.24	7362.24	2642.09	1755.0	1607.74	1967.03	2912.84	3469.91	7995.74	8611.25	9788.5	10407.11	9194.7	7238.74	2275.42	1130.0		1975.0	7150.0	9125.0	10311.66	9686.96	8495.66	7871.11	3172.18	2550.91	1375.39	779.31	625.0	2071.53	7177.26	9146.38	11347.23	9159.57	7194.06	4234.94	2129.0	795.0	1320.35	1740.03	2764.62	3346.45	7942.94	8562.25	9745.42	10366.6	9234.83	7289.64	2432.49	1420.0	2550.0	3225.39	7591.11	9474.6	10696.44	10095.58	8958.78	8368.86	4259.84	3819.77	3158.35	2948.02	3175.0	3739.15	7823.24	9661.59	11784.87	9718.78	7893.76	5297.0	3884.54	3345.0	3729.19	3897.59	4450.46	4833.45	8674.9	9245.31	10350.69	10937.54	3970.0	4434.13	8178.23	9951.21	
8782.51	7265.72	5100.0	5469.06	9610.74	9074.25	8086.37	7591.85	4933.68	4822.28	4831.91	4952.95	4891.45	4475.0	4910.41	6841.51	8434.93	10329.31	8345.99	6731.54	4305.0	4736.42	4184.22	4040.21	4028.69	4161.4	7114.23	7639.72	8678.59	9238.09	8041.45	6350.04	3680.0	4176.48	3225.39	2550.0	5769.15	7591.11	8627.85	8025.92	6889.33	6301.56	2532.73	2308.21	2328.27	2570.06	2757.94	1925.0	2868.03	5521.44	7404.6	9529.33	7362.24	5464.49	1755.0	2642.09	1913.43	1573.79	1543.97	1862.99	6063.47	6672.24	7840.37	8455.52	7238.74	5296.94	1130.0	2275.42	1975.0		5175.0	7150.0	8337.76	7713.23	6522.37	5898.15	1221.98	637.46	706.63	1297.57	2071.53	625.0	5212.6	7177.26	9376.92	7194.06	5235.71	2311.73	795.0	2129.0	1679.2	1278.8	1241.91	1621.49	5993.68	6608.88	7786.52	8405.61	7289.64	5366.29	1420.0	2432.49	3225.39	2550.0	5769.15	7591.11	8809.19	8220.55	7115.11	6547.65	3094.63	2913.73	2929.65	3125.25	3739.15	3175.0	6071.35	7823.24	9902.03	7893.76	6161.95	3932.89	3345.0	3884.54	3870.81	3714.68	3702.14	3846.13	6934.53	7472.67	8531.91	9100.43	4434.13	3970.0	6522.39	8178.23	
5469.06	5100.0	7265.72	8782.51	5736.79	5418.04	4973.9	4843.07	6236.04	6653.57	7529.95	8022.05	8434.93	6841.51	5303.09	4475.0	4891.45	6058.28	4736.42	4305.0	6731.54	8345.99	7571.61	7048.13	6102.95	5644.83	4053.56	4209.0	4725.58	5087.9	4176.48	3680.0	6350.04	8041.45	7591.11	5769.15	2550.0	3225.39	3870.95	3380.62	2610.21	2351.35	4578.39	5132.59	6226.85	6813.72	7404.6	5521.44	3498.03	1925.0	2757.94	4562.48	2642.09	1755.0	5464.49	7362.24	6594.15	5985.79	4837.31	4244.72	1607.74	1967.03	2912.84	3469.91	2275.42	1130.0	5296.94	7238.74	7150.0	5175.0		1975.0	3172.18	2550.91	1375.39	779.31	4005.02	4628.39	5818.26	6442.46	7177.26	5212.6	625.0	2071.53	4234.94	2129.0	795.0	3058.55	5235.71	7194.06	6530.03	5915.08	4749.53	4144.41	1320.35	1740.03	2764.62	3346.45	2432.49	1420.0	5366.29	7289.64	7591.11	5769.15	2550.0	3225.39	4259.84	3819.77	3158.35	2948.02	4911.58	5431.9	6475.78	7041.93	7823.24	6071.35	3175.0	3739.15	5297.0	3884.54	3345.0	4413.41	6161.95	7893.76	7403.03	6866.71	5892.5	5416.61	3729.19	3897.59	4450.46	4833.45	8178.23	6522.39	3970.0	4434.13	
5100.0	5469.06	8782.51	10453.5	4933.68	4822.28	4831.91	4952.95	7652.52	8149.34	9140.59	9678.44	10163.23	8434.93	6616.24	4891.45	4475.0	4910.41	4305.0	4736.42	8345.99	10089.53	9308.5	8747.93	7706.34	7178.94	4184.22	4040.21	4028.69	4161.4	3680.0	4176.48	8041.45	9839.11	9474.6	7591.11	3225.39	2550.0	2532.73	2308.21	2328.27	2570.06	6374.53	6963.13	8100.85	8703.2	9325.84	7404.6	5280.92	2757.94	1925.0	2868.03	1755.0	2642.09	7362.24	9292.24	8532.39	7917.06	6748.43	6139.27	1913.43	1573.79	1543.97	1862.99	1130.0	2275.42	7238.74	9194.7	9125.0	7150.0	1975.0		1221.98	637.46	706.63	1297.57	5976.05	6600.28	7791.17	8415.71	9146.38	7177.26	2071.53	625.0	2311.73	795.0	2129.0	5000.66	7194.06	9159.57	8482.94	7863.73	6685.79	6070.35	1679.2	1278.8	1241.91	1621.49	1420.0	2432.49	7289.64	9234.83	9474.6	7591.11	3225.39	2550.0	3094.63	2913.73	2929.65	3125.25	6617.9	7186.6	8293.72	8883.0	9661.59	7823.24	3739.15	3175.0	3932.89	3345.0	3884.54	5927.07	7893.76	9718.78	9171.9	8602.43	7540.77	7000.9	3870.81	3714.68	3702.14	3846.13	9951.21	8178.23	4434.13	3970.0	
5537.62	6263.76	9934.3	11640.55	5100.0	5138.15	5414.01	5654.5	8782.51	9298.42	10315.87	10863.54	11363.56	9608.25	7726.02	5732.61	4928.83	4808.98	4763.96	5591.5	9524.73	11293.03	10511.73	9944.7	8884.85	8343.41	4945.03	4668.14	4345.18	4300.0	4161.4	5087.9	9238.09	11052.35	10696.44	8809.19	4259.84	3094.63	2550.0	2625.48	3131.13	3530.7	7591.11	8182.49	9322.53	9925.17	10546.54	8626.55	6497.99	3868.06	2528.31	2378.83	2379.36	3772.38	8584.08	10511.83	9750.33	9136.17	7969.51	7361.05	3004.31	2522.69	1858.26	1750.0	1862.99	3469.91	8455.52	10407.11	10311.66	8337.76	3172.18	1221.98		625.0	1817.0	2442.0	7150.0	7775.0	8967.0	9592.0	10311.81	8337.95	3172.68	1223.25	1093.77	1277.63	3194.04	6145.03	8346.1	10318.4	9625.3	9002.62	7816.05	7194.62	2569.7	1985.32	1015.2	800.0	1621.49	3346.45	8405.61	10366.6	10547.6	8627.85	3870.95	2532.73	2550.0	2625.48	3131.13	3530.7	7591.11	8182.49	9322.53	9925.17	10697.78	8810.81	4263.2	3099.25	3120.71	3257.05	4379.25	6804.7	8867.55	10744.56	10160.17	9572.33	8466.0	7895.89	4145.58	3811.04	3407.8	3350.0	10937.54	9100.43	4833.45	3846.13	
5438.6	5973.2	9416.26	11090.95	5138.15	5100.0	5237.45	5414.01	8281.64	8782.51	9777.47	10315.87	10799.88	9071.61	7239.96	5413.62	4817.31	4978.9	4648.49	5263.96	8983.1	10725.64	9944.7	9385.04	8343.41	7814.45	4668.14	4462.16	4300.0	4345.18	4028.69	4725.58	8678.59	10471.93	10095.58	8220.55	3819.77	2913.73	2625.48	2550.0	2814.85	3131.13	7005.58	7591.11	8723.04	9322.53	9936.62	8024.53	5911.81	3377.31	2303.36	2705.91	2138.8	3267.3	7978.85	9899.77	9136.17	8523.58	7361.05	6755.6	2522.69	2117.4	1750.0	1858.26	1543.97	2912.84	7840.37	9788.5	9686.96	7713.23	2550.91	637.46	625.0		1192.0	1817.0	6525.0	7150.0	8342.0	8967.0	9687.12	7713.43	2551.52	639.9	1690.99	738.56	2578.03	5521.51	7722.25	9694.14	9002.62	8380.27	7194.62	6573.86	1985.32	1435.57	800.0	1015.2	1241.91	2764.62	7786.52	9745.42	9937.74	8025.92	3380.62	2308.21	2625.48	2550.0	2814.85	3131.13	7005.58	7591.11	8723.04	9322.53	10097.0	8222.29	3823.51	2918.64	3376.68	3085.69	3952.5	6247.36	8283.06	10146.54	9572.33	8989.52	7895.89	7334.72	3811.04	3555.75	3350.0	3407.8	10350.69	8531.91	4450.46	3702.14	
5447.14	5573.48	8468.37	10067.18	5414.01	5237.45	5100.0	5138.15	7379.08	7842.69	8782.51	9298.42	9745.58	8083.41	6380.38	4969.09	4826.95	5488.83	4658.48	4805.6	7983.95	9663.25	8884.85	8343.41	7347.64	6850.61	4345.18	4300.0	4462.16	4668.14	4040.21	4209.0	7639.72	9380.84	8958.78	7115.11	3158.35	2929.65	3131.13	2814.85	2550.0	2625.48	5911.29	6480.76	7591.11	8182.49	8779.26	6887.7	4820.97	2605.92	2323.46	3558.05	2160.43	2461.67	6834.43	8737.52	7969.51	7361.05	6209.69	5612.79	1858.26	1750.0	2117.4	2522.69	1573.79	1967.03	6672.24	8611.25	8495.66	6522.37	1375.39	706.63	1817.0	1192.0		625.0	5333.0	5958.0	7150.0	7775.0	8495.84	6522.61	1376.53	708.84	2863.08	799.03	1425.07	4333.5	6533.03	8503.84	7816.05	7194.62	6011.47	5392.67	1015.2	800.0	1435.57	1985.32	1278.8	1740.03	6608.88	8562.25	8780.53	6889.33	2610.21	2328.27	3131.13	2814.85	2550.0	2625.48	5911.29	6480.76	7591.11	8182.49	8960.38	7117.12	3162.88	2934.53	4091.42	3100.72	3317.65	5227.02	7187.24	9016.17	8466.0	7895.89	6835.22	6297.89	3407.8	3350.0	3555.75	3811.04	9245.31	7472.67	3897.59	3714.68	
5554.79	5457.04	7997.51	9546.01	5654.5	5414.01	5138.15	5100.0	6940.84	7379.08	8281.64	8782.51	9206.22	7588.7	5975.46	4838.12	4948.11	5836.23	4783.91	4670.06	7482.67	9119.02	8343.41	7814.45	6850.61	6376.15	4300.0	4345.18	4668.14	4945.03	4184.22	4053.56	7114.23	8819.2	8368.86	6547.65	2948.02	3125.25	3530.7	3131.13	2625.48	2550.0	5354.23	5911.29	7005.58	7591.11	8176.4	6299.79	4270.67	2346.58	2565.7	4073.59	2419.05	2185.28	6241.5	8131.57	7361.05	6755.6	5612.79	5022.72	1750.0	1858.26	2522.69	3004.31	1913.43	1607.74	6063.47	7995.74	7871.11	5898.15	779.31	1297.57	2442.0	1817.0	625.0		4708.0	5333.0	6525.0	7150.0	7871.31	5898.42	781.31	1298.78	3483.04	1350.12	863.97	3711.62	5909.93	7879.94	7194.62	6573.86	5392.67	4775.49	800.0	1015.2	1985.32	2569.7	1679.2	1320.35	5993.68	7942.94	8177.76	6301.56	2351.35	2570.06	3530.7	3131.13	2625.48	2550.0	5354.23	5911.29	7005.58	7591.11	8370.57	6549.83	2952.87	3129.83	4546.88	3286.16	3118.08	4724.26	6625.96	8430.27	7895.89	7334.72	6297.89	5778.21	3350.0	3407.8	3811.04	4145.58	8674.9	6934.53	3729.19	3870.81	
8055.13	6724.0	5537.62	6263.76	8782.51	8281.64	7379.08	6940.84	5100.0	5138.15	5414.01	5654.5	5732.61	4928.83	4808.98	6232.2	7649.4	9423.71	7544.22	6102.64	4763.96	5591.5	4945.03	4668.14	4345.18	4300.0	6376.15	6850.61	7814.45	8343.41	7178.94	5644.83	4161.4	5087.9	4259.84	3094.63	4911.58	6617.9	7591.11	7005.58	5911.29	5354.23	2550.0	2625.48	3131.13	3530.7	3868.06	2528.31	2378.83	4575.95	6372.77	8446.23	6315.16	4495.36	2379.36	3772.38	3004.31	2522.69	1858.26	1750.0	5022.72	5612.79	6755.6	7361.05	6139.27	4244.72	1862.99	3469.91	3172.18	1221.98	4005.02	5976.05	7150.0	6525.0	5333.0	4708.0		625.0	1817.0	2442.0	3172.68	1223.25	4005.41	5976.31	8177.79	5987.67	4022.35	1093.77	1277.63	3194.04	2569.7	1985.32	1015.2	800.0	4775.49	5392.67	6573.86	7194.62	6070.35	4144.41	1621.49	3346.45	3870.95	2532.73	4578.39	6374.53	7591.11	7005.58	5911.29	5354.23	2550.0	2625.48	3131.13	3530.7	4263.2	3099.25	4914.5	6620.06	8684.4	6695.39	5015.5	3120.71	3257.05	4379.25	4145.58	3811.04	3407.8	3350.0	5778.21	6297.89	7334.72	7895.89	4833.45	3846.13	5416.61	7000.9	
8528.53	7112.95	5438.6	5973.2	9298.42	8782.51	7842.69	7379.08	5138.15	5100.0	5237.45	5414.01	5413.62	4817.31	4978.9	6649.97	8146.4	9970.3	8047.72	6528.72	4648.49	5263.96	4668.14	4462.16	4300.0	4345.18	6850.61	7347.64	8343.41	8884.85	7706.34	6102.95	4028.69	4725.58	3819.77	2913.73	5431.9	7186.6	8182.49	7591.11	6480.76	5911.29	2625.48	2550.0	2814.85	3131.13	3377.31	2303.36	2705.91	5130.41	6961.53	9052.04	6908.83	5058.67	2138.8	3267.3	2522.69	2117.4	1750.0	1858.26	5612.79	6209.69	7361.05	7969.51	6748.43	4837.31	1543.97	2912.84	2550.91	637.46	4628.39	6600.28	7775.0	7150.0	5958.0	5333.0	625.0		1192.0	1817.0	2551.52	639.9	4628.73	6600.52	8802.09	6610.81	4643.4	1690.99	738.56	2578.03	1985.32	1435.57	800.0	1015.2	5392.67	6011.47	7194.62	7816.05	6685.79	4749.53	1241.91	2764.62	3380.62	2308.21	5132.59	6963.13	8182.49	7591.11	6480.76	5911.29	2625.48	2550.0	2814.85	3131.13	3823.51	2918.64	5434.53	7188.59	9274.66	7258.02	5526.04	3376.68	3085.69	3952.5	3811.04	3555.75	3350.0	3407.8	6297.89	6835.22	7895.89	8466.0	4450.46	3702.14	5892.5	7540.77	
9480.21	7938.78	5447.14	5573.48	10315.87	9777.47	8782.51	8281.64	5414.01	5237.45	5100.0	5138.15	4969.09	4826.95	5488.83	7526.77	9137.97	11035.86	9050.11	7419.86	4658.48	4805.6	4345.18	4300.0	4462.16	4668.14	7814.45	8343.41	9385.04	9944.7	8747.93	7048.13	4040.21	4209.0	3158.35	2929.65	6475.78	8293.72	9322.53	8723.04	7591.11	7005.58	3131.13	2814.85	2550.0	2625.48	2605.92	2323.46	3558.05	6225.06	8099.47	10213.85	8054.22	6166.06	2160.43	2461.67	1858.26	1750.0	2117.4	2522.69	6755.6	7361.05	8523.58	9136.17	7917.06	5985.79	1573.79	1967.03	1375.39	706.63	5818.26	7791.17	8967.0	8342.0	7150.0	6525.0	1817.0	1192.0		625.0	1376.53	708.84	5818.53	7791.37	9993.01	7800.09	5830.21	2863.08	799.03	1425.07	1015.2	800.0	1435.57	1985.32	6573.86	7194.62	8380.27	9002.62	7863.73	5915.08	1278.8	1740.03	2610.21	2328.27	6226.85	8100.85	9322.53	8723.04	7591.11	7005.58	3131.13	2814.85	2550.0	2625.48	3162.88	2934.53	6477.99	8295.45	10411.66	8355.68	6554.95	4091.42	3100.72	3317.65	3407.8	3350.0	3555.75	3811.04	7334.72	7895.89	8989.52	9572.33	3897.59	3714.68	6866.71	8602.43	
9999.81	8406.98	5554.79	5457.04	10863.54	10315.87	9298.42	8782.51	5654.5	5414.01	5138.15	5100.0	4838.12	4948.11	5836.23	8019.07	9675.97	11604.4	9593.04	7918.8	4783.91	4670.06	4300.0	4345.18	4668.14	4945.03	8343.41	8884.85	9944.7	10511.73	9308.5	7571.61	4184.22	4053.56	2948.02	3125.25	7041.93	8883.0	9925.17	9322.53	8182.49	7591.11	3530.7	3131.13	2625.48	2550.0	2346.58	2565.7	4073.59	6812.08	8701.92	10825.65	8659.81	6758.21	2419.05	2185.28	1750.0	1858.26	2522.69	3004.31	7361.05	7969.51	9136.17	9750.33	8532.39	6594.15	1913.43	1607.74	779.31	1297.57	6442.46	8415.71	9592.0	8967.0	7775.0	7150.0	2442.0	1817.0	625.0		781.31	1298.78	6442.71	8415.9	10617.54	8423.97	6453.25	3483.04	1350.12	863.97	800.0	1015.2	1985.32	2569.7	7194.62	7816.05	9002.62	9625.3	8482.94	6530.03	1679.2	1320.35	2351.35	2570.06	6813.72	8703.2	9925.17	9322.53	8182.49	7591.11	3530.7	3131.13	2625.48	2550.0	2952.87	3129.83	7043.97	8884.61	11012.47	8940.88	7114.8	4546.88	3286.16	3118.08	3350.0	3407.8	3811.04	4145.58	7895.89	8466.0	9572.33	10160.17	3729.19	3870.81	7403.03	9171.9	
10772.24	9159.59	6056.09	5725.0	11642.87	11093.39	10069.87	9548.85	6268.08	5977.73	5578.34	5462.0	5100.0	5469.06	6525.4	8782.51	10453.5	12385.71	10371.62	8684.89	5310.89	4930.0	4670.06	4805.6	5263.96	5591.5	9119.02	9663.25	10725.64	11293.03	10089.53	8345.99	4736.42	4305.0	3175.0	3739.15	7823.24	9661.59	10697.78	10097.0	8960.38	8370.57	4263.2	3823.51	3162.88	2952.87	2550.0	3225.39	4848.39	7591.11	9474.6	11590.16	9430.27	7535.71	3092.74	2380.0	2185.28	2461.67	3267.3	3772.38	8131.57	8737.52	9899.77	10511.83	9292.24	7362.24	2642.09	1755.0	625.0	2071.53	7177.26	9146.38	10311.81	9687.12	8495.84	7871.31	3172.68	2551.52	1376.53	781.31		1975.0	7150.0	9125.0	11325.32	9126.58	7152.02	4175.87	1982.3	170.0	863.97	1425.07	2578.03	3194.04	7879.94	8503.84	9694.14	10318.4	9159.57	7194.06	2129.0	795.0	1925.0	2757.94	7404.6	9325.84	10546.54	9936.62	8779.26	8176.4	3868.06	3377.31	2605.92	2346.58	2550.0	3225.39	7591.11	9474.6	11627.5	9521.77	7649.9	4936.99	3361.4	2720.0	3118.08	3317.65	3952.5	4379.25	8430.27	9016.17	10146.54	10744.56	3345.0	3884.54	7893.76	9718.78	
9159.59	7717.27	5725.0	6056.09	9937.02	9419.13	8471.57	8000.9	5542.5	5443.57	5452.11	5559.66	5469.06	5100.0	5476.33	7265.72	8782.51	10610.03	8684.89	7147.41	4930.0	5310.89	4783.91	4658.48	4648.49	4763.96	7482.67	7983.95	8983.1	9524.73	8345.99	6731.54	4305.0	4736.42	3739.15	3175.0	6071.35	7823.24	8810.81	8222.29	7117.12	6549.83	3099.25	2918.64	2934.53	3129.83	3225.39	2550.0	3303.97	5769.15	7591.11	9669.47	7535.71	5696.05	2380.0	3092.74	2419.05	2160.43	2138.8	2379.36	6241.5	6834.43	7978.85	8584.08	7362.24	5464.49	1755.0	2642.09	2071.53	625.0	5212.6	7177.26	8337.95	7713.43	6522.61	5898.42	1223.25	639.9	708.84	1298.78	1975.0		5175.0	7150.0	9350.39	7152.02	5177.79	2201.64	170.0	1982.3	1350.12	799.03	738.56	1277.63	5909.93	6533.03	7722.25	8346.1	7194.06	5235.71	795.0	2129.0	2757.94	1925.0	5521.44	7404.6	8626.55	8024.53	6887.7	6299.79	2528.31	2303.36	2323.46	2565.7	3225.39	2550.0	5769.15	7591.11	9714.2	7649.9	5846.28	3432.67	2720.0	3361.4	3286.16	3100.72	3085.69	3257.05	6625.96	7187.24	8283.06	8867.55	3884.54	3345.0	6161.95	7893.76	
6056.09	5725.0	7717.27	9159.59	6268.08	5977.73	5578.34	5462.0	6728.02	7116.75	7942.19	8410.2	8782.51	7265.72	5831.02	5100.0	5469.06	6525.4	5310.89	4930.0	7147.41	8684.89	7918.8	7419.86	6528.72	6102.64	4670.06	4805.6	5263.96	5591.5	4736.42	4305.0	6731.54	8345.99	7823.24	6071.35	3175.0	3739.15	4263.2	3823.51	3162.88	2952.87	4914.5	5434.53	6477.99	7043.97	7591.11	5769.15	3863.53	2550.0	3225.39	4848.39	3092.74	2380.0	5696.05	7535.71	6758.21	6166.06	5058.67	4495.36	2185.28	2461.67	3267.3	3772.38	2642.09	1755.0	5464.49	7362.24	7177.26	5212.6	625.0	2071.53	3172.68	2551.52	1376.53	781.31	4005.41	4628.73	5818.53	6442.71	7150.0	5175.0		1975.0	4175.87	1982.3	170.0	2976.21	5177.79	7152.02	6453.25	5830.21	4643.4	4022.35	863.97	1425.07	2578.03	3194.04	2129.0	795.0	5235.71	7194.06	7404.6	5521.44	1925.0	2757.94	3868.06	3377.31	2605.92	2346.58	4575.95	5130.41	6225.06	6812.08	7591.11	5769.15	2550.0	3225.39	4936.99	3361.4	2720.0	3974.15	5846.28	7649.9	7114.8	6554.95	5526.04	5015.5	3118.08	3317.65	3952.5	4379.25	7893.76	6161.95	3345.0	3884.54	
5725.0	6056.09	9159.59	10772.24	5542.5	5443.57	5452.11	5559.66	8058.49	8531.7	9483.06	10002.52	10453.5	8782.51	7046.47	5469.06	5100.0	5476.33	4930.0	5310.89	8684.89	10371.62	9593.04	9050.11	8047.72	7544.22	4783.91	4658.48	4648.49	4763.96	4305.0	4736.42	8345.99	10089.53	9661.59	7823.24	3739.15	3175.0	3099.25	2918.64	2934.53	3129.83	6620.06	7188.59	8295.45	8884.61	9474.6	7591.11	5529.8	3225.39	2550.0	3303.97	2380.0	3092.74	7535.71	9430.27	8659.81	8054.22	6908.83	6315.16	2419.05	2160.43	2138.8	2379.36	1755.0	2642.09	7362.24	9292.24	9146.38	7177.26	2071.53	625.0	1223.25	639.9	708.84	1298.78	5976.31	6600.52	7791.37	8415.9	9125.0	7150.0	1975.0		2201.64	170.0	1982.3	4950.73	7152.02	9126.58	8423.97	7800.09	6610.81	5987.67	1350.12	799.03	738.56	1277.63	795.0	2129.0	7194.06	9159.57	9325.84	7404.6	2757.94	1925.0	2528.31	2303.36	2323.46	2565.7	6372.77	6961.53	8099.47	8701.92	9474.6	7591.11	3225.39	2550.0	3432.67	2720.0	3361.4	5607.65	7649.9	9521.77	8940.88	8355.68	7258.02	6695.39	3286.16	3100.72	3085.69	3257.05	9718.78	7893.76	3884.54	3345.0	
6212.58	7154.49	11008.12	12728.38	5593.42	5740.16	6187.67	6497.82	9847.14	10371.44	11399.57	11950.82	12455.51	10691.43	8782.51	6656.94	5632.43	5100.0	5476.33	6525.4	10610.03	12385.71	11604.4	11035.86	9970.3	9423.71	5836.23	5488.83	4978.9	4808.98	4910.41	6058.28	10329.31	12146.1	11784.87	9902.03	5297.0	3932.89	3120.71	3376.68	4091.42	4546.88	8684.4	9274.66	10411.66	11012.47	11627.5	9714.2	7591.11	4936.99	3432.67	2550.0	3303.97	4848.39	9669.47	11590.16	10825.65	10213.85	9052.04	8446.23	4073.59	3558.05	2705.91	2378.83	2868.03	4562.48	9529.33	11473.5	11347.23	9376.92	4234.94	2311.73	1093.77	1690.99	2863.08	3483.04	8177.79	8802.09	9993.01	10617.54	11325.32	9350.39	4175.87	2201.64		2201.64	4175.87	7150.0	9350.39	11325.32	10617.54	9993.01	8802.09	8177.79	3483.04	2863.08	1690.99	1093.77	2311.73	4234.94	9376.92	11347.23	11473.5	9529.33	4562.48	2868.03	2378.83	2705.91	3558.05	4073.59	8446.23	9052.04	10213.85	10825.65	11590.16	9669.47	4848.39	3303.97	2550.0	3432.67	4936.99	7591.11	9714.2	11627.5	11012.47	10411.66	9274.66	8684.4	4546.88	4091.42	3376.68	3120.71	11784.87	9902.03	5297.0	3932.89	
5895.0	6217.05	9266.8	10863.55	5708.71	5612.71	5620.98	5725.37	8173.69	8640.59	9581.15	10095.56	10537.48	8882.31	7168.45	5627.92	5270.0	5632.43	5100.0	5469.06	8782.51	10453.5	9675.97	9137.97	8146.4	7649.4	4948.11	4826.95	4817.31	4928.83	4475.0	4891.45	8434.93	10163.23	9718.78	7893.76	3884.54	3345.0	3257.05	3085.69	3100.72	3286.16	6695.39	7258.02	8355.68	8940.88	9521.77	7649.9	5607.65	3361.4	2720.0	3432.67	2550.0	3225.39	7591.11	9474.6	8701.92	8099.47	6961.53	6372.77	2565.7	2323.46	2303.36	2528.31	1925.0	2757.94	7404.6	9325.84	9159.57	7194.06	2129.0	795.0	1277.63	738.56	799.03	1350.12	5987.67	6610.81	7800.09	8423.97	9126.58	7152.02	1982.3	170.0	2201.64		1975.0	4950.73	7150.0	9125.0	8415.9	7791.37	6600.52	5976.31	1298.78	708.84	639.9	1223.25	625.0	2071.53	7177.26	9146.38	9292.24	7362.24	2642.09	1755.0	2379.36	2138.8	2160.43	2419.05	6315.16	6908.83	8054.22	8659.81	9430.27	7535.71	3092.74	2380.0	3303.97	2550.0	3225.39	5529.8	7591.11	9474.6	8884.61	8295.45	7188.59	6620.06	3129.83	2934.53	2918.64	3099.25	9661.59	7823.24	3739.15	3175.0	
6217.05	5895.0	7844.21	9266.8	6415.52	6132.15	5743.5	5630.58	6865.59	7246.94	8059.05	8520.65	8882.31	7386.04	5977.86	5270.0	5627.92	6656.94	5469.06	5100.0	7265.72	8782.51	8019.07	7526.77	6649.97	6232.2	4838.12	4969.09	5413.62	5732.61	4891.45	4475.0	6841.51	8434.93	7893.76	6161.95	3345.0	3884.54	4379.25	3952.5	3317.65	3118.08	5015.5	5526.04	6554.95	7114.8	7649.9	5846.28	3974.15	2720.0	3361.4	4936.99	3225.39	2550.0	5769.15	7591.11	6812.08	6225.06	5130.41	4575.95	2346.58	2605.92	3377.31	3868.06	2757.94	1925.0	5521.44	7404.6	7194.06	5235.71	795.0	2129.0	3194.04	2578.03	1425.07	863.97	4022.35	4643.4	5830.21	6453.25	7152.02	5177.79	170.0	1982.3	4175.87	1975.0		2976.21	5175.0	7150.0	6442.71	5818.53	4628.73	4005.41	781.31	1376.53	2551.52	3172.68	2071.53	625.0	5212.6	7177.26	7362.24	5464.49	1755.0	2642.09	3772.38	3267.3	2461.67	2185.28	4495.36	5058.67	6166.06	6758.21	7535.71	5696.05	2380.0	3092.74	4848.39	3225.39	2550.0	3863.53	5769.15	7591.11	7043.97	6477.99	5434.53	4914.5	2952.87	3162.88	3823.51	4263.2	7823.24	6071.35	3175.0	3739.15	
7632.73	6527.38	6212.58	7154.49	8237.2	7783.13	6990.65	6623.15	5593.42	5740.16	6187.67	6497.82	6656.94	5632.43	5100.0	5977.86	7168.45	8782.51	7046.47	5831.02	5476.33	6525.4	5836.23	5488.83	4978.9	4808.98	5975.46	6380.38	7239.96	7726.02	6616.24	5303.09	4910.41	6058.28	5297.0	3932.89	4413.41	5927.07	6804.7	6247.36	5227.02	4724.26	3120.71	3376.68	4091.42	4546.88	4936.99	3432.67	2550.0	3974.15	5607.65	7591.11	5529.8	3863.53	3303.97	4848.39	4073.59	3558.05	2705.91	2378.83	4270.67	4820.97	5911.81	6497.99	5280.92	3498.03	2868.03	4562.48	4234.94	2311.73	3058.55	5000.66	6145.03	5521.51	4333.5	3711.62	1093.77	1690.99	2863.08	3483.04	4175.87	2201.64	2976.21	4950.73	7150.0	4950.73	2976.21		2201.64	4175.87	3483.04	2863.08	1690.99	1093.77	3711.62	4333.5	5521.51	6145.03	5000.66	3058.55	2311.73	4234.94	4562.48	2868.03	3498.03	5280.92	6497.99	5911.81	4820.97	4270.67	2378.83	2705.91	3558.05	4073.59	4848.39	3303.97	3863.53	5529.8	7591.11	5607.65	3974.15	2550.0	3432.67	4936.99	4546.88	4091.42	3376.68	3120.71	4724.26	5227.02	6247.36	6804.7	5297.0	3932.89	4413.41	5927.07	
9266.8	7844.21	5895.0	6217.05	10030.68	9517.88	8581.23	8116.92	5708.71	5612.71	5620.98	5725.37	5627.92	5270.0	5632.43	7386.04	8882.31	10691.43	8782.51	7265.72	5100.0	5469.06	4948.11	4826.95	4817.31	4928.83	7588.7	8083.41	9071.61	9608.25	8434.93	6841.51	4475.0	4891.45	3884.54	3345.0	6161.95	7893.76	8867.55	8283.06	7187.24	6625.96	3257.05	3085.69	3100.72	3286.16	3361.4	2720.0	3432.67	5846.28	7649.9	9714.2	7591.11	5769.15	2550.0	3225.39	2565.7	2323.46	2303.36	2528.31	6299.79	6887.7	8024.53	8626.55	7404.6	5521.44	1925.0	2757.94	2129.0	795.0	5235.71	7194.06	8346.1	7722.25	6533.03	5909.93	1277.63	738.56	799.03	1350.12	1982.3	170.0	5177.79	7152.02	9350.39	7150.0	5175.0	2201.64		1975.0	1298.78	708.84	639.9	1223.25	5898.42	6522.61	7713.43	8337.95	7177.26	5212.6	625.0	2071.53	2642.09	1755.0	5464.49	7362.24	8584.08	7978.85	6834.43	6241.5	2379.36	2138.8	2160.43	2419.05	3092.74	2380.0	5696.05	7535.71	9669.47	7591.11	5769.15	3303.97	2550.0	3225.39	3129.83	2934.53	2918.64	3099.25	6549.83	7117.12	8222.29	8810.81	3739.15	3175.0	6071.35	7823.24	
10863.55	9266.8	6217.05	5895.0	11722.9	11177.36	10162.3	9646.27	6415.52	6132.15	5743.5	5630.58	5270.0	5627.92	6656.94	8882.31	10537.48	12455.51	10453.5	8782.51	5469.06	5100.0	4838.12	4969.09	5413.62	5732.61	9206.22	9745.58	10799.88	11363.56	10163.23	8434.93	4891.45	4475.0	3345.0	3884.54	7893.76	9718.78	10744.56	10146.54	9016.17	8430.27	4379.25	3952.5	3317.65	3118.08	2720.0	3361.4	4936.99	7649.9	9521.77	11627.5	9474.6	7591.11	3225.39	2550.0	2346.58	2605.92	3377.31	3868.06	8176.4	8779.26	9936.62	10546.54	9325.84	7404.6	2757.94	1925.0	795.0	2129.0	7194.06	9159.57	10318.4	9694.14	8503.84	7879.94	3194.04	2578.03	1425.07	863.97	170.0	1982.3	7152.02	9126.58	11325.32	9125.0	7150.0	4175.87	1975.0		781.31	1376.53	2551.52	3172.68	7871.31	8495.84	9687.12	10311.81	9146.38	7177.26	2071.53	625.0	1755.0	2642.09	7362.24	9292.24	10511.83	9899.77	8737.52	8131.57	3772.38	3267.3	2461.67	2185.28	2380.0	3092.74	7535.71	9430.27	11590.16	9474.6	7591.11	4848.39	3225.39	2550.0	2952.87	3162.88	3823.51	4263.2	8370.57	8960.38	10097.0	10697.78	3175.0	3739.15	7823.24	9661.59	
10454.29	8942.78	6336.54	6251.03	11261.28	10733.92	9760.15	9269.98	6385.4	6173.45	5933.01	5900.0	5630.58	5725.37	6497.82	8520.65	10095.56	11950.82	10002.52	8410.2	5559.66	5462.0	5100.0	5138.15	5414.01	5654.5	8782.51	9298.42	10315.87	10863.54	9678.44	8022.05	4952.95	4843.07	3729.19	3870.81	7403.03	9171.9	10160.17	9572.33	8466.0	7895.89	4145.58	3811.04	3407.8	3350.0	3118.08	3286.16	4546.88	7114.8	8940.88	11012.47	8884.61	7043.97	3129.83	2952.87	2550.0	2625.48	3131.13	3530.7	7591.11	8182.49	9322.53	9925.17	8703.2	6813.72	2570.06	2351.35	1320.35	1679.2	6530.03	8482.94	9625.3	9002.62	7816.05	7194.62	2569.7	1985.32	1015.2	800.0	863.97	1350.12	6453.25	8423.97	10617.54	8415.9	6442.71	3483.04	1298.78	781.31		625.0	1817.0	2442.0	7150.0	7775.0	8967.0	9592.0	8415.71	6442.46	1297.57	779.31	1607.74	1913.43	6594.15	8532.39	9750.33	9136.17	7969.51	7361.05	3004.31	2522.69	1858.26	1750.0	2185.28	2419.05	6758.21	8659.81	10825.65	8701.92	6812.08	4073.59	2565.7	2346.58	2550.0	2625.48	3131.13	3530.7	7591.11	8182.49	9322.53	9925.17	2948.02	3125.25	7041.93	8883.0	
9958.43	8504.13	6242.38	6352.93	10733.92	10217.58	9269.98	8796.91	6173.45	6019.21	5900.0	5933.01	5743.5	5620.98	6187.67	8059.05	9581.15	11399.57	9483.06	7942.19	5452.11	5578.34	5138.15	5100.0	5237.45	5414.01	8281.64	8782.51	9777.47	10315.87	9140.59	7529.95	4831.91	4973.9	3897.59	3714.68	6866.71	8602.43	9572.33	8989.52	7895.89	7334.72	3811.04	3555.75	3350.0	3407.8	3317.65	3100.72	4091.42	6554.95	8355.68	10411.66	8295.45	6477.99	2934.53	3162.88	2625.48	2550.0	2814.85	3131.13	7005.58	7591.11	8723.04	9322.53	8100.85	6226.85	2328.27	2610.21	1740.03	1278.8	5915.08	7863.73	9002.62	8380.27	7194.62	6573.86	1985.32	1435.57	800.0	1015.2	1425.07	799.03	5830.21	7800.09	9993.01	7791.37	5818.53	2863.08	708.84	1376.53	625.0		1192.0	1817.0	6525.0	7150.0	8342.0	8967.0	7791.17	5818.26	706.63	1375.39	1967.03	1573.79	5985.79	7917.06	9136.17	8523.58	7361.05	6755.6	2522.69	2117.4	1750.0	1858.26	2461.67	2160.43	6166.06	8054.22	10213.85	8099.47	6225.06	3558.05	2323.46	2605.92	2625.48	2550.0	2814.85	3131.13	7005.58	7591.11	8723.04	9322.53	3158.35	2929.65	6475.78	8293.72	
9057.14	7738.86	6234.93	6706.35	9760.15	9269.98	8384.97	7953.04	5933.01	5900.0	6019.21	6173.45	6132.15	5612.71	5740.16	7246.94	8640.59	10371.44	8531.7	7116.75	5443.57	5977.73	5414.01	5237.45	5100.0	5138.15	7379.08	7842.69	8782.51	9298.42	8149.34	6653.57	4822.28	5418.04	4450.46	3702.14	5892.5	7540.77	8466.0	7895.89	6835.22	6297.89	3407.8	3350.0	3555.75	3811.04	3952.5	3085.69	3376.68	5526.04	7258.02	9274.66	7188.59	5434.53	2918.64	3823.51	3131.13	2814.85	2550.0	2625.48	5911.29	6480.76	7591.11	8182.49	6963.13	5132.59	2308.21	3380.62	2764.62	1241.91	4749.53	6685.79	7816.05	7194.62	6011.47	5392.67	1015.2	800.0	1435.57	1985.32	2578.03	738.56	4643.4	6610.81	8802.09	6600.52	4628.73	1690.99	639.9	2551.52	1817.0	1192.0		625.0	5333.0	5958.0	7150.0	7775.0	6600.28	4628.39	637.46	2550.91	2912.84	1543.97	4837.31	6748.43	7969.51	7361.05	6209.69	5612.79	1858.26	1750.0	2117.4	2522.69	3267.3	2138.8	5058.67	6908.83	9052.04	6961.53	5130.41	2705.91	2303.36	3377.31	3131.13	2814.85	2550.0	2625.48	5911.29	6480.76	7591.11	8182.49	3819.77	2913.73	5431.9	7186.6	
8612.85	7382.96	6321.49	6966.4	9269.98	8796.91	7953.04	7548.2	5900.0	5933.01	6173.45	6385.4	6415.52	5708.71	5593.42	6865.59	8173.69	9847.14	8058.49	6728.02	5542.5	6268.08	5654.5	5414.01	5138.15	5100.0	6940.84	7379.08	8281.64	8782.51	7652.52	6236.04	4933.68	5736.79	4833.45	3846.13	5416.61	7000.9	7895.89	7334.72	6297.89	5778.21	3350.0	3407.8	3811.04	4145.58	4379.25	3257.05	3120.71	5015.5	6695.39	8684.4	6620.06	4914.5	3099.25	4263.2	3530.7	3131.13	2625.48	2550.0	5354.23	5911.29	7005.58	7591.11	6374.53	4578.39	2532.73	3870.95	3346.45	1621.49	4144.41	6070.35	7194.62	6573.86	5392.67	4775.49	800.0	1015.2	1985.32	2569.7	3194.04	1277.63	4022.35	5987.67	8177.79	5976.31	4005.41	1093.77	1223.25	3172.68	2442.0	1817.0	625.0		4708.0	5333.0	6525.0	7150.0	5976.05	4005.02	1221.98	3172.18	3469.91	1862.99	4244.72	6139.27	7361.05	6755.6	5612.79	5022.72	1750.0	1858.26	2522.69	3004.31	3772.38	2379.36	4495.36	6315.16	8446.23	6372.77	4575.95	2378.83	2528.31	3868.06	3530.7	3131.13	2625.48	2550.0	5354.23	5911.29	7005.58	7591.11	4259.84	3094.63	4911.58	6617.9	
6336.54	6251.03	8558.98	10021.09	6385.4	6173.45	5933.01	5900.0	7548.2	7953.04	8796.91	9269.98	9646.27	8116.92	6623.15	5630.58	5725.37	6497.82	5559.66	5462.0	8000.9	9548.85	8782.51	8281.64	7379.08	6940.84	5100.0	5138.15	5414.01	5654.5	4952.95	4843.07	7591.85	9208.82	8674.9	6934.53	3729.19	3870.81	4145.58	3811.04	3407.8	3350.0	5778.21	6297.89	7334.72	7895.89	8430.27	6625.96	4724.26	3118.08	3286.16	4546.88	3129.83	2952.87	6549.83	8370.57	7591.11	7005.58	5911.29	5354.23	2550.0	2625.48	3131.13	3530.7	2570.06	2351.35	6301.56	8177.76	7942.94	5993.68	1320.35	1679.2	2569.7	1985.32	1015.2	800.0	4775.49	5392.67	6573.86	7194.62	7879.94	5909.93	863.97	1350.12	3483.04	1298.78	781.31	3711.62	5898.42	7871.31	7150.0	6525.0	5333.0	4708.0		625.0	1817.0	2442.0	1297.57	779.31	5898.15	7871.11	7995.74	6063.47	1607.74	1913.43	3004.31	2522.69	1858.26	1750.0	5022.72	5612.79	6755.6	7361.05	8131.57	6241.5	2185.28	2419.05	4073.59	2565.7	2346.58	4270.67	6299.79	8176.4	7591.11	7005.58	5911.29	5354.23	2550.0	2625.48	3131.13	3530.7	8368.86	6547.65	2948.02	3125.25	
6242.38	6352.93	9000.52	10518.75	6173.45	6019.21	5900.0	5933.01	7953.04	8384.97	9269.98	9760.15	10162.3	8581.23	6990.65	5743.5	5620.98	6187.67	5452.11	5578.34	8471.57	10069.87	9298.42	8782.51	7842.69	7379.08	5138.15	5100.0	5237.45	5414.01	4831.91	4973.9	8086.37	9748.04	9245.31	7472.67	3897.59	3714.68	3811.04	3555.75	3350.0	3407.8	6297.89	6835.22	7895.89	8466.0	9016.17	7187.24	5227.02	3317.65	3100.72	4091.42	2934.53	3162.88	7117.12	8960.38	8182.49	7591.11	6480.76	5911.29	2625.48	2550.0	2814.85	3131.13	2328.27	2610.21	6889.33	8780.53	8562.25	6608.88	1740.03	1278.8	1985.32	1435.57	800.0	1015.2	5392.67	6011.47	7194.62	7816.05	8503.84	6533.03	1425.07	799.03	2863.08	708.84	1376.53	4333.5	6522.61	8495.84	7775.0	7150.0	5958.0	5333.0	625.0		1192.0	1817.0	706.63	1375.39	6522.37	8495.66	8611.25	6672.24	1967.03	1573.79	2522.69	2117.4	1750.0	1858.26	5612.79	6209.69	7361.05	7969.51	8737.52	6834.43	2461.67	2160.43	3558.05	2323.46	2605.92	4820.97	6887.7	8779.26	8182.49	7591.11	6480.76	5911.29	2625.48	2550.0	2814.85	3131.13	8958.78	7115.11	3158.35	2929.65	
6234.93	6706.35	9897.57	11502.4	5933.01	5900.0	6019.21	6173.45	8796.91	9269.98	10217.58	10733.92	11177.36	9517.88	7783.13	6132.15	5612.71	5740.16	5443.57	5977.73	9419.13	11093.39	10315.87	9777.47	8782.51	8281.64	5414.01	5237.45	5100.0	5138.15	4822.28	5418.04	9074.25	10802.09	10350.69	8531.91	4450.46	3702.14	3407.8	3350.0	3555.75	3811.04	7334.72	7895.89	8989.52	9572.33	10146.54	8283.06	6247.36	3952.5	3085.69	3376.68	2918.64	3823.51	8222.29	10097.0	9322.53	8723.04	7591.11	7005.58	3131.13	2814.85	2550.0	2625.48	2308.21	3380.62	8025.92	9937.74	9745.42	7786.52	2764.62	1241.91	1015.2	800.0	1435.57	1985.32	6573.86	7194.62	8380.27	9002.62	9694.14	7722.25	2578.03	738.56	1690.99	639.9	2551.52	5521.51	7713.43	9687.12	8967.0	8342.0	7150.0	6525.0	1817.0	1192.0		625.0	637.46	2550.91	7713.23	9686.96	9788.5	7840.37	2912.84	1543.97	1858.26	1750.0	2117.4	2522.69	6755.6	7361.05	8523.58	9136.17	9899.77	7978.85	3267.3	2138.8	2705.91	2303.36	3377.31	5911.81	8024.53	9936.62	9322.53	8723.04	7591.11	7005.58	3131.13	2814.85	2550.0	2625.48	10095.58	8220.55	3819.77	2913.73	
6321.49	6966.4	10391.65	12033.22	5900.0	5933.01	6173.45	6385.4	9269.98	9760.15	10733.92	11261.28	11722.9	10030.68	8237.2	6415.52	5708.71	5593.42	5542.5	6268.08	9937.02	11642.87	10863.54	10315.87	9298.42	8782.51	5654.5	5414.01	5138.15	5100.0	4933.68	5736.79	9610.74	11365.67	10937.54	9100.43	4833.45	3846.13	3350.0	3407.8	3811.04	4145.58	7895.89	8466.0	9572.33	10160.17	10744.56	8867.55	6804.7	4379.25	3257.05	3120.71	3099.25	4263.2	8810.81	10697.78	9925.17	9322.53	8182.49	7591.11	3530.7	3131.13	2625.48	2550.0	2532.73	3870.95	8627.85	10547.6	10366.6	8405.61	3346.45	1621.49	800.0	1015.2	1985.32	2569.7	7194.62	7816.05	9002.62	9625.3	10318.4	8346.1	3194.04	1277.63	1093.77	1223.25	3172.68	6145.03	8337.95	10311.81	9592.0	8967.0	7775.0	7150.0	2442.0	1817.0	625.0		1221.98	3172.18	8337.76	10311.66	10407.11	8455.52	3469.91	1862.99	1750.0	1858.26	2522.69	3004.31	7361.05	7969.51	9136.17	9750.33	10511.83	8584.08	3772.38	2379.36	2378.83	2528.31	3868.06	6497.99	8626.55	10546.54	9925.17	9322.53	8182.49	7591.11	3530.7	3131.13	2625.48	2550.0	10696.44	8809.19	4259.84	3094.63	
6520.0	6812.56	9676.41	11214.99	6321.49	6234.93	6242.38	6336.54	8612.85	9057.14	9958.43	10454.29	10863.55	9266.8	7632.73	6217.05	5895.0	6212.58	5725.0	6056.09	9159.59	10772.24	9999.81	9480.21	8528.53	8055.13	5554.79	5447.14	5438.6	5537.62	5100.0	5469.06	8782.51	10453.5	9951.21	8178.23	4434.13	3970.0	3846.13	3702.14	3714.68	3870.81	7000.9	7540.77	8602.43	9171.9	9718.78	7893.76	5927.07	3884.54	3345.0	3932.89	3175.0	3739.15	7823.24	9661.59	8883.0	8293.72	7186.6	6617.9	3125.25	2929.65	2913.73	3094.63	2550.0	3225.39	7591.11	9474.6	9234.83	7289.64	2432.49	1420.0	1621.49	1241.91	1278.8	1679.2	6070.35	6685.79	7863.73	8482.94	9159.57	7194.06	2129.0	795.0	2311.73	625.0	2071.53	5000.66	7177.26	9146.38	8415.71	7791.17	6600.28	5976.05	1297.57	706.63	637.46	1221.98		1975.0	7150.0	9125.0	9194.7	7238.74	2275.42	1130.0	1862.99	1543.97	1573.79	1913.43	6139.27	6748.43	7917.06	8532.39	9292.24	7362.24	2642.09	1755.0	2868.03	1925.0	2757.94	5280.92	7404.6	9325.84	8703.2	8100.85	6963.13	6374.53	2570.06	2328.27	2308.21	2532.73	9474.6	7591.11	3225.39	2550.0	
6812.56	6520.0	8324.12	9676.41	6966.4	6706.35	6352.93	6251.03	7382.96	7738.86	8504.13	8942.78	9266.8	7844.21	6527.38	5895.0	6217.05	7154.49	6056.09	5725.0	7717.27	9159.59	8406.98	7938.78	7112.95	6724.0	5457.04	5573.48	5973.2	6263.76	5469.06	5100.0	7265.72	8782.51	8178.23	6522.39	3970.0	4434.13	4833.45	4450.46	3897.59	3729.19	5416.61	5892.5	6866.71	7403.03	7893.76	6161.95	4413.41	3345.0	3884.54	5297.0	3739.15	3175.0	6071.35	7823.24	7041.93	6475.78	5431.9	4911.58	2948.02	3158.35	3819.77	4259.84	3225.39	2550.0	5769.15	7591.11	7289.64	5366.29	1420.0	2432.49	3346.45	2764.62	1740.03	1320.35	4144.41	4749.53	5915.08	6530.03	7194.06	5235.71	795.0	2129.0	4234.94	2071.53	625.0	3058.55	5212.6	7177.26	6442.46	5818.26	4628.39	4005.02	779.31	1375.39	2550.91	3172.18	1975.0		5175.0	7150.0	7238.74	5296.94	1130.0	2275.42	3469.91	2912.84	1967.03	1607.74	4244.72	4837.31	5985.79	6594.15	7362.24	5464.49	1755.0	2642.09	4562.48	2757.94	1925.0	3498.03	5521.44	7404.6	6813.72	6226.85	5132.59	4578.39	2351.35	2610.21	3380.62	3870.95	7591.11	5769.15	2550.0	3225.39	
9676.41	8324.12	6520.0	6812.56	10391.65	9897.57	9000.52	8558.98	6321.49	6234.93	6242.38	6336.54	6217.05	5895.0	6212.58	7844.21	9266.8	11008.12	9159.59	7717.27	5725.0	6056.09	5554.79	5447.14	5438.6	5537.62	7997.51	8468.37	9416.26	9934.3	8782.51	7265.72	5100.0	5469.06	4434.13	3970.0	6522.39	8178.23	9100.43	8531.91	7472.67	6934.53	3846.13	3702.14	3714.68	3870.81	3884.54	3345.0	3932.89	6161.95	7893.76	9902.03	7823.24	6071.35	3175.0	3739.15	3125.25	2929.65	2913.73	3094.63	6547.65	7115.11	8220.55	8809.19	7591.11	5769.15	2550.0	3225.39	2432.49	1420.0	5366.29	7289.64	8405.61	7786.52	6608.88	5993.68	1621.49	1241.91	1278.8	1679.2	2129.0	795.0	5235.71	7194.06	9376.92	7177.26	5212.6	2311.73	625.0	2071.53	1297.57	706.63	637.46	1221.98	5898.15	6522.37	7713.23	8337.76	7150.0	5175.0		1975.0	2275.42	1130.0	5296.94	7238.74	8455.52	7840.37	6672.24	6063.47	1862.99	1543.97	1573.79	1913.43	2642.09	1755.0	5464.49	7362.24	9529.33	7404.6	5521.44	2868.03	1925.0	2757.94	2570.06	2328.27	2308.21	2532.73	6301.56	6889.33	8025.92	8627.85	3225.39	2550.0	5769.15	7591.11	
11214.99	9676.41	6812.56	6520.0	12033.22	11502.4	10518.75	10021.09	6966.4	6706.35	6352.93	6251.03	5895.0	6217.05	7154.49	9266.8	10863.55	12728.38	10772.24	9159.59	6056.09	5725.0	5457.04	5573.48	5973.2	6263.76	9546.01	10067.18	11090.95	11640.55	10453.5	8782.51	5469.06	5100.0	3970.0	4434.13	8178.23	9951.21	10937.54	10350.69	9245.31	8674.9	4833.45	4450.46	3897.59	3729.19	3345.0	3884.54	5297.0	7893.76	9718.78	11784.87	9661.59	7823.24	3739.15	3175.0	2948.02	3158.35	3819.77	4259.84	8368.86	8958.78	10095.58	10696.44	9474.6	7591.11	3225.39	2550.0	1420.0	2432.49	7289.64	9234.83	10366.6	9745.42	8562.25	7942.94	3346.45	2764.62	1740.03	1320.35	795.0	2129.0	7194.06	9159.57	11347.23	9146.38	7177.26	4234.94	2071.53	625.0	779.31	1375.39	2550.91	3172.18	7871.11	8495.66	9686.96	10311.66	9125.0	7150.0	1975.0		1130.0	2275.42	7238.74	9194.7	10407.11	9788.5	8611.25	7995.74	3469.91	2912.84	1967.03	1607.74	1755.0	2642.09	7362.24	9292.24	11473.5	9325.84	7404.6	4562.48	2757.94	1925.0	2351.35	2610.21	3380.62	3870.95	8177.76	8780.53	9937.74	10547.6	2550.0	3225.39	7591.11	9474.6	
11907.48	10471.15	7900.83	7650.0	12653.45	12149.76	11223.0	10757.97	7990.13	7764.45	7461.31	7374.74	7025.0	7297.35	8099.03	10023.63	11515.91	13282.29	11413.0	9905.23	7133.84	6855.0	6578.97	6675.87	7013.03	7262.11	10228.87	10716.89	11683.87	12206.8	11048.92	9483.43	6535.56	6230.0	5100.0	5469.06	8782.51	10453.5	11365.67	10802.09	9748.04	9208.82	5736.79	5418.04	4973.9	4843.07	4475.0	4891.45	6058.28	8434.93	10163.23	12146.1	10089.53	8345.99	4736.42	4305.0	4053.56	4209.0	4725.58	5087.9	8819.2	9380.84	10471.93	11052.35	9839.11	8041.45	4176.48	3680.0	2550.0	3225.39	7591.11	9474.6	10547.6	9937.74	8780.53	8177.76	3870.95	3380.62	2610.21	2351.35	1925.0	2757.94	7404.6	9325.84	11473.5	9292.24	7362.24	4562.48	2642.09	1755.0	1607.74	1967.03	2912.84	3469.91	7995.74	8611.25	9788.5	10407.11	9194.7	7238.74	2275.42	1130.0		1975.0	7150.0	9125.0	10311.66	9686.96	8495.66	7871.11	3172.18	2550.91	1375.39	779.31	625.0	2071.53	7177.26	9146.38	11347.23	9159.57	7194.06	4234.94	2129.0	795.0	1320.35	1740.03	2764.62	3346.45	7942.94	8562.25	9745.42	10366.6	1420.0	2432.49	7289.64	9234.83	
10471.15	9235.97	7650.0	7900.83	11103.96	10643.0	9814.32	9411.04	7434.56	7361.1	7367.42	7447.36	7297.35	7025.0	7280.36	8725.32	10023.63	11644.14	9905.23	8589.04	6855.0	7133.84	6660.27	6570.76	6563.68	6645.96	8801.35	9231.3	10107.89	10592.16	9483.43	8098.98	6230.0	6535.56	5469.06	5100.0	7265.72	8782.51	9610.74	9074.25	8086.37	7591.85	4933.68	4822.28	4831.91	4952.95	4891.45	4475.0	4910.41	6841.51	8434.93	10329.31	8345.99	6731.54	4305.0	4736.42	4184.22	4040.21	4028.69	4161.4	7114.23	7639.72	8678.59	9238.09	8041.45	6350.04	3680.0	4176.48	3225.39	2550.0	5769.15	7591.11	8627.85	8025.92	6889.33	6301.56	2532.73	2308.21	2328.27	2570.06	2757.94	1925.0	5521.44	7404.6	9529.33	7362.24	5464.49	2868.03	1755.0	2642.09	1913.43	1573.79	1543.97	1862.99	6063.47	6672.24	7840.37	8455.52	7238.74	5296.94	1130.0	2275.42	1975.0		5175.0	7150.0	8337.76	7713.23	6522.37	5898.15	1221.98	637.46	706.63	1297.57	2071.53	625.0	5212.6	7177.26	9376.92	7194.06	5235.71	2311.73	795.0	2129.0	1679.2	1278.8	1241.91	1621.49	5993.68	6608.88	7786.52	8405.61	2432.49	1420.0	5366.29	7289.64	
7900.83	7650.0	9235.97	10471.15	7990.13	7764.45	7461.31	7374.74	8355.82	8671.88	9361.18	9761.39	10023.63	8725.32	7550.78	7025.0	7297.35	8099.03	7133.84	6855.0	8589.04	9905.23	9175.01	8748.01	8006.09	7662.61	6578.97	6675.87	7013.03	7262.11	6535.56	6230.0	8098.98	9483.43	8782.51	7265.72	5100.0	5469.06	5736.79	5418.04	4973.9	4843.07	6236.04	6653.57	7529.95	8022.05	8434.93	6841.51	5303.09	4475.0	4891.45	6058.28	4736.42	4305.0	6731.54	8345.99	7571.61	7048.13	6102.95	5644.83	4053.56	4209.0	4725.58	5087.9	4176.48	3680.0	6350.04	8041.45	7591.11	5769.15	2550.0	3225.39	3870.95	3380.62	2610.21	2351.35	4578.39	5132.59	6226.85	6813.72	7404.6	5521.44	1925.0	2757.94	4562.48	2642.09	1755.0	3498.03	5464.49	7362.24	6594.15	5985.79	4837.31	4244.72	1607.74	1967.03	2912.84	3469.91	2275.42	1130.0	5296.94	7238.74	7150.0	5175.0		1975.0	3172.18	2550.91	1375.39	779.31	4005.02	4628.39	5818.26	6442.46	7177.26	5212.6	625.0	2071.53	4234.94	2129.0	795.0	3058.55	5235.71	7194.06	6530.03	5915.08	4749.53	4144.41	1320.35	1740.03	2764.62	3346.45	7289.64	5366.29	1420.0	2432.49	
7650.0	7900.83	10471.15	11907.48	7434.56	7361.1	7367.42	7447.36	9460.05	9866.27	10699.62	11162.6	11515.91	10023.63	8524.44	7297.35	7025.0	7280.36	6855.0	7133.84	9905.23	11413.0	10653.62	10167.49	9286.51	8853.74	6660.27	6570.76	6563.68	6645.96	6230.0	6535.56	9483.43	11048.92	10453.5	8782.51	5469.06	5100.0	4933.68	4822.28	4831.91	4952.95	7652.52	8149.34	9140.59	9678.44	10163.23	8434.93	6616.24	4891.45	4475.0	4910.41	4305.0	4736.42	8345.99	10089.53	9308.5	8747.93	7706.34	7178.94	4184.22	4040.21	4028.69	4161.4	3680.0	4176.48	8041.45	9839.11	9474.6	7591.11	3225.39	2550.0	2532.73	2308.21	2328.27	2570.06	6374.53	6963.13	8100.85	8703.2	9325.84	7404.6	2757.94	1925.0	2868.03	1755.0	2642.09	5280.92	7362.24	9292.24	8532.39	7917.06	6748.43	6139.27	1913.43	1573.79	1543.97	1862.99	1130.0	2275.42	7238.74	9194.7	9125.0	7150.0	1975.0		1221.98	637.46	706.63	1297.57	5976.05	6600.28	7791.17	8415.71	9146.38	7177.26	2071.53	625.0	2311.73	795.0	2129.0	5000.66	7194.06	9159.57	8482.94	7863.73	6685.79	6070.35	1679.2	1278.8	1241.91	1621.49	9234.83	7289.64	2432.49	1420.0	
8047.28	8563.19	11523.19	13022.9	7650.0	7675.49	7862.82	8030.31	10471.15	10907.48	11786.84	12269.02	12650.55	11100.65	9495.47	7985.54	7429.63	7321.12	7261.84	7829.68	10989.06	12552.75	11786.81	11284.04	10362.1	9901.77	7272.27	7086.89	6878.45	6850.0	6645.96	7262.11	10592.16	12206.8	11640.55	9934.3	6263.76	5537.62	5100.0	5138.15	5414.01	5654.5	8782.51	9298.42	10315.87	10863.54	11363.56	9608.25	7726.02	5732.61	4928.83	4808.98	4763.96	5591.5	9524.73	11293.03	10511.73	9944.7	8884.85	8343.41	4945.03	4668.14	4345.18	4300.0	4161.4	5087.9	9238.09	11052.35	10696.44	8809.19	4259.84	3094.63	2550.0	2625.48	3131.13	3530.7	7591.11	8182.49	9322.53	9925.17	10546.54	8626.55	3868.06	2528.31	2378.83	2379.36	3772.38	6497.99	8584.08	10511.83	9750.33	9136.17	7969.51	7361.05	3004.31	2522.69	1858.26	1750.0	1862.99	3469.91	8455.52	10407.11	10311.66	8337.76	3172.18	1221.98		625.0	1817.0	2442.0	7150.0	7775.0	8967.0	9592.0	10311.81	8337.95	3172.68	1223.25	1093.77	1277.63	3194.04	6145.03	8346.1	10318.4	9625.3	9002.62	7816.05	7194.62	2569.7	1985.32	1015.2	800.0	10366.6	8405.61	3346.45	1621.49	
7979.46	8353.0	11079.69	12534.06	7675.49	7650.0	7742.31	7862.82	10054.76	10471.15	11318.63	11786.84	12146.74	10639.55	9104.37	7759.72	7356.12	7433.84	7186.62	7599.23	10523.07	12044.85	11284.04	10794.05	9901.77	9460.34	7086.89	6952.94	6850.0	6878.45	6563.68	7013.03	10107.89	11683.87	11090.95	9416.26	5973.2	5438.6	5138.15	5100.0	5237.45	5414.01	8281.64	8782.51	9777.47	10315.87	10799.88	9071.61	7239.96	5413.62	4817.31	4978.9	4648.49	5263.96	8983.1	10725.64	9944.7	9385.04	8343.41	7814.45	4668.14	4462.16	4300.0	4345.18	4028.69	4725.58	8678.59	10471.93	10095.58	8220.55	3819.77	2913.73	2625.48	2550.0	2814.85	3131.13	7005.58	7591.11	8723.04	9322.53	9936.62	8024.53	3377.31	2303.36	2705.91	2138.8	3267.3	5911.81	7978.85	9899.77	9136.17	8523.58	7361.05	6755.6	2522.69	2117.4	1750.0	1858.26	1543.97	2912.84	7840.37	9788.5	9686.96	7713.23	2550.91	637.46	625.0		1192.0	1817.0	6525.0	7150.0	8342.0	8967.0	9687.12	7713.43	2551.52	639.9	1690.99	738.56	2578.03	5521.51	7722.25	9694.14	9002.62	8380.27	7194.62	6573.86	1985.32	1435.57	800.0	1015.2	9745.42	7786.52	2764.62	1241.91	
7985.29	8072.0	10286.24	11637.94	7862.82	7742.31	7650.0	7675.49	9325.42	9696.4	10471.15	10907.48	11219.73	9810.58	8436.93	7456.39	7362.44	7784.58	7193.08	7289.23	9684.13	11109.34	10362.1	9901.77	9078.56	8681.21	6878.45	6850.0	6952.94	7086.89	6570.76	6675.87	9231.3	10716.89	10067.18	8468.37	5573.48	5447.14	5414.01	5237.45	5100.0	5138.15	7379.08	7842.69	8782.51	9298.42	9745.58	8083.41	6380.38	4969.09	4826.95	5488.83	4658.48	4805.6	7983.95	9663.25	8884.85	8343.41	7347.64	6850.61	4345.18	4300.0	4462.16	4668.14	4040.21	4209.0	7639.72	9380.84	8958.78	7115.11	3158.35	2929.65	3131.13	2814.85	2550.0	2625.48	5911.29	6480.76	7591.11	8182.49	8779.26	6887.7	2605.92	2323.46	3558.05	2160.43	2461.67	4820.97	6834.43	8737.52	7969.51	7361.05	6209.69	5612.79	1858.26	1750.0	2117.4	2522.69	1573.79	1967.03	6672.24	8611.25	8495.66	6522.37	1375.39	706.63	1817.0	1192.0		625.0	5333.0	5958.0	7150.0	7775.0	8495.84	6522.61	1376.53	708.84	2863.08	799.03	1425.07	4333.5	6533.03	8503.84	7816.05	7194.62	6011.47	5392.67	1015.2	800.0	1435.57	1985.32	8562.25	6608.88	1740.03	1278.8	
8059.11	7992.05	9902.21	11190.17	8030.31	7862.82	7675.49	7650.0	8982.64	9325.42	10054.76	10471.15	10754.55	9407.14	8135.02	7369.77	7442.43	8033.31	7274.95	7200.59	9275.2	10639.34	9901.77	9460.34	8681.21	8311.9	6850.0	6878.45	7086.89	7272.27	6660.27	6578.97	8801.35	10228.87	9546.01	7997.51	5457.04	5554.79	5654.5	5414.01	5138.15	5100.0	6940.84	7379.08	8281.64	8782.51	9206.22	7588.7	5975.46	4838.12	4948.11	5836.23	4783.91	4670.06	7482.67	9119.02	8343.41	7814.45	6850.61	6376.15	4300.0	4345.18	4668.14	4945.03	4184.22	4053.56	7114.23	8819.2	8368.86	6547.65	2948.02	3125.25	3530.7	3131.13	2625.48	2550.0	5354.23	5911.29	7005.58	7591.11	8176.4	6299.79	2346.58	2565.7	4073.59	2419.05	2185.28	4270.67	6241.5	8131.57	7361.05	6755.6	5612.79	5022.72	1750.0	1858.26	2522.69	3004.31	1913.43	1607.74	6063.47	7995.74	7871.11	5898.15	779.31	1297.57	2442.0	1817.0	625.0		4708.0	5333.0	6525.0	7150.0	7871.31	5898.42	781.31	1298.78	3483.04	1350.12	863.97	3711.62	5909.93	7879.94	7194.62	6573.86	5392.67	4775.49	800.0	1015.2	1985.32	2569.7	7942.94	5993.68	1320.35	1679.2	
9948.8	8905.37	8047.28	8563.19	10471.15	10054.76	9325.42	8982.64	7650.0	7675.49	7862.82	8030.31	7985.54	7429.63	7321.12	8351.42	9456.18	10921.48	9324.93	8202.52	7261.84	7829.68	7272.27	7086.89	6878.45	6850.0	8311.9	8681.21	9460.34	9901.77	8853.74	7662.61	6645.96	7262.11	6263.76	5537.62	6724.0	8055.13	8782.51	8281.64	7379.08	6940.84	5100.0	5138.15	5414.01	5654.5	5732.61	4928.83	4808.98	6232.2	7649.4	9423.71	7544.22	6102.64	4763.96	5591.5	4945.03	4668.14	4345.18	4300.0	6376.15	6850.61	7814.45	8343.41	7178.94	5644.83	4161.4	5087.9	4259.84	3094.63	4911.58	6617.9	7591.11	7005.58	5911.29	5354.23	2550.0	2625.48	3131.13	3530.7	3868.06	2528.31	4575.95	6372.77	8446.23	6315.16	4495.36	2378.83	2379.36	3772.38	3004.31	2522.69	1858.26	1750.0	5022.72	5612.79	6755.6	7361.05	6139.27	4244.72	1862.99	3469.91	3172.18	1221.98	4005.02	5976.05	7150.0	6525.0	5333.0	4708.0		625.0	1817.0	2442.0	3172.68	1223.25	4005.41	5976.31	8177.79	5987.67	4022.35	1093.77	1277.63	3194.04	2569.7	1985.32	1015.2	800.0	4775.49	5392.67	6573.86	7194.62	3346.45	1621.49	4144.41	6070.35	
10335.82	9202.58	7979.46	8353.0	10907.48	10471.15	9696.4	9325.42	7675.49	7650.0	7742.31	7862.82	7759.72	7356.12	7433.84	8667.65	9862.55	11396.46	9736.78	8524.27	7186.62	7599.23	7086.89	6952.94	6850.0	6878.45	8681.21	9078.56	9901.77	10362.1	9286.51	8006.09	6563.68	7013.03	5973.2	5438.6	7112.95	8528.53	9298.42	8782.51	7842.69	7379.08	5138.15	5100.0	5237.45	5414.01	5413.62	4817.31	4978.9	6649.97	8146.4	9970.3	8047.72	6528.72	4648.49	5263.96	4668.14	4462.16	4300.0	4345.18	6850.61	7347.64	8343.41	8884.85	7706.34	6102.95	4028.69	4725.58	3819.77	2913.73	5431.9	7186.6	8182.49	7591.11	6480.76	5911.29	2625.48	2550.0	2814.85	3131.13	3377.31	2303.36	5130.41	6961.53	9052.04	6908.83	5058.67	2705.91	2138.8	3267.3	2522.69	2117.4	1750.0	1858.26	5612.79	6209.69	7361.05	7969.51	6748.43	4837.31	1543.97	2912.84	2550.91	637.46	4628.39	6600.28	7775.0	7150.0	5958.0	5333.0	625.0		1192.0	1817.0	2551.52	639.9	4628.73	6600.52	8802.09	6610.81	4643.4	1690.99	738.56	2578.03	1985.32	1435.57	800.0	1015.2	5392.67	6011.47	7194.62	7816.05	2764.62	1241.91	4749.53	6685.79	
11134.08	9854.83	7985.29	8072.0	11786.84	11318.63	10471.15	10054.76	7862.82	7742.31	7650.0	7675.49	7456.39	7362.44	7784.58	9357.26	10696.19	12339.48	10580.33	9224.6	7193.08	7289.23	6878.45	6850.0	6952.94	7086.89	9460.34	9901.77	10794.05	11284.04	10167.49	8748.01	6570.76	6675.87	5573.48	5447.14	7938.78	9480.21	10315.87	9777.47	8782.51	8281.64	5414.01	5237.45	5100.0	5138.15	4969.09	4826.95	5488.83	7526.77	9137.97	11035.86	9050.11	7419.86	4658.48	4805.6	4345.18	4300.0	4462.16	4668.14	7814.45	8343.41	9385.04	9944.7	8747.93	7048.13	4040.21	4209.0	3158.35	2929.65	6475.78	8293.72	9322.53	8723.04	7591.11	7005.58	3131.13	2814.85	2550.0	2625.48	2605.92	2323.46	6225.06	8099.47	10213.85	8054.22	6166.06	3558.05	2160.43	2461.67	1858.26	1750.0	2117.4	2522.69	6755.6	7361.05	8523.58	9136.17	7917.06	5985.79	1573.79	1967.03	1375.39	706.63	5818.26	7791.17	8967.0	8342.0	7150.0	6525.0	1817.0	1192.0		625.0	1376.53	708.84	5818.53	7791.37	9993.01	7800.09	5830.21	2863.08	799.03	1425.07	1015.2	800.0	1435.57	1985.32	6573.86	7194.62	8380.27	9002.62	1740.03	1278.8	5915.08	7863.73	
11579.71	10235.76	8059.11	7992.05	12269.02	11786.84	10907.48	10471.15	8030.31	7862.82	7675.49	7650.0	7369.77	7442.43	8033.31	9757.64	11159.32	12850.47	11048.32	9630.5	7274.95	7200.59	6850.0	6878.45	7086.89	7272.27	9901.77	10362.1	11284.04	11786.81	10653.62	9175.01	6660.27	6578.97	5457.04	5554.79	8406.98	9999.81	10863.54	10315.87	9298.42	8782.51	5654.5	5414.01	5138.15	5100.0	4838.12	4948.11	5836.23	8019.07	9675.97	11604.4	9593.04	7918.8	4783.91	4670.06	4300.0	4345.18	4668.14	4945.03	8343.41	8884.85	9944.7	10511.73	9308.5	7571.61	4184.22	4053.56	2948.02	3125.25	7041.93	8883.0	9925.17	9322.53	8182.49	7591.11	3530.7	3131.13	2625.48	2550.0	2346.58	2565.7	6812.08	8701.92	10825.65	8659.81	6758.21	4073.59	2419.05	2185.28	1750.0	1858.26	2522.69	3004.31	7361.05	7969.51	9136.17	9750.33	8532.39	6594.15	1913.43	1607.74	779.31	1297.57	6442.46	8415.71	9592.0	8967.0	7775.0	7150.0	2442.0	1817.0	625.0		781.31	1298.78	6442.71	8415.9	10617.54	8423.97	6453.25	3483.04	1350.12	863.97	800.0	1015.2	1985.32	2569.7	7194.62	7816.05	9002.62	9625.3	1320.35	1679.2	6530.03	8482.94	
12318.33	10936.09	8507.42	8275.0	13025.95	12537.24	11641.36	11193.72	8567.84	8357.77	8076.93	7997.03	7650.0	7900.83	8640.59	10471.15	11907.48	13619.28	11798.98	10347.6	7736.34	7480.0	7200.59	7289.23	7599.23	7829.68	10639.34	11109.34	12044.85	12552.75	11413.0	9905.23	7133.84	6855.0	5725.0	6056.09	9159.59	10772.24	11642.87	11093.39	10069.87	9548.85	6268.08	5977.73	5578.34	5462.0	5100.0	5469.06	6525.4	8782.51	10453.5	12385.71	10371.62	8684.89	5310.89	4930.0	4670.06	4805.6	5263.96	5591.5	9119.02	9663.25	10725.64	11293.03	10089.53	8345.99	4736.42	4305.0	3175.0	3739.15	7823.24	9661.59	10697.78	10097.0	8960.38	8370.57	4263.2	3823.51	3162.88	2952.87	2550.0	3225.39	7591.11	9474.6	11590.16	9430.27	7535.71	4848.39	3092.74	2380.0	2185.28	2461.67	3267.3	3772.38	8131.57	8737.52	9899.77	10511.83	9292.24	7362.24	2642.09	1755.0	625.0	2071.53	7177.26	9146.38	10311.81	9687.12	8495.84	7871.31	3172.68	2551.52	1376.53	781.31		1975.0	7150.0	9125.0	11325.32	9126.58	7152.02	4175.87	1982.3	170.0	863.97	1425.07	2578.03	3194.04	7879.94	8503.84	9694.14	10318.4	795.0	2129.0	7194.06	9159.57	
10936.09	9759.93	8275.0	8507.42	11526.64	11083.28	10290.11	9906.23	8052.23	7984.45	7990.27	8064.05	7900.83	7650.0	7878.4	9235.97	10471.15	12027.12	10347.6	9095.66	7480.0	7736.34	7274.95	7193.08	7186.62	7261.84	9275.2	9684.13	10523.07	10989.06	9905.23	8589.04	6855.0	7133.84	6056.09	5725.0	7717.27	9159.59	9937.02	9419.13	8471.57	8000.9	5542.5	5443.57	5452.11	5559.66	5469.06	5100.0	5476.33	7265.72	8782.51	10610.03	8684.89	7147.41	4930.0	5310.89	4783.91	4658.48	4648.49	4763.96	7482.67	7983.95	8983.1	9524.73	8345.99	6731.54	4305.0	4736.42	3739.15	3175.0	6071.35	7823.24	8810.81	8222.29	7117.12	6549.83	3099.25	2918.64	2934.53	3129.83	3225.39	2550.0	5769.15	7591.11	9669.47	7535.71	5696.05	3303.97	2380.0	3092.74	2419.05	2160.43	2138.8	2379.36	6241.5	6834.43	7978.85	8584.08	7362.24	5464.49	1755.0	2642.09	2071.53	625.0	5212.6	7177.26	8337.95	7713.43	6522.61	5898.42	1223.25	639.9	708.84	1298.78	1975.0		5175.0	7150.0	9350.39	7152.02	5177.79	2201.64	170.0	1982.3	1350.12	799.03	738.56	1277.63	5909.93	6533.03	7722.25	8346.1	2129.0	795.0	5235.71	7194.06	
8507.42	8275.0	9759.93	10936.09	8567.84	8357.77	8076.93	7997.03	8909.84	9206.91	9858.87	10239.65	10471.15	9235.97	8128.95	7650.0	7900.83	8640.59	7736.34	7480.0	9095.66	10347.6	9630.5	9224.6	8524.27	8202.52	7200.59	7289.23	7599.23	7829.68	7133.84	6855.0	8589.04	9905.23	9159.59	7717.27	5725.0	6056.09	6268.08	5977.73	5578.34	5462.0	6728.02	7116.75	7942.19	8410.2	8782.51	7265.72	5831.02	5100.0	5469.06	6525.4	5310.89	4930.0	7147.41	8684.89	7918.8	7419.86	6528.72	6102.64	4670.06	4805.6	5263.96	5591.5	4736.42	4305.0	6731.54	8345.99	7823.24	6071.35	3175.0	3739.15	4263.2	3823.51	3162.88	2952.87	4914.5	5434.53	6477.99	7043.97	7591.11	5769.15	2550.0	3225.39	4848.39	3092.74	2380.0	3863.53	5696.05	7535.71	6758.21	6166.06	5058.67	4495.36	2185.28	2461.67	3267.3	3772.38	2642.09	1755.0	5464.49	7362.24	7177.26	5212.6	625.0	2071.53	3172.68	2551.52	1376.53	781.31	4005.41	4628.73	5818.53	6442.71	7150.0	5175.0		1975.0	4175.87	1982.3	170.0	2976.21	5177.79	7152.02	6453.25	5830.21	4643.4	4022.35	863.97	1425.07	2578.03	3194.04	7194.06	5235.71	795.0	2129.0	
8275.0	8507.42	10936.09	12318.33	8052.23	7984.45	7990.27	8064.05	9952.8	10339.67	11137.66	11583.15	11907.48	10471.15	9040.56	7900.83	7650.0	7878.4	7480.0	7736.34	10347.6	11798.98	11048.32	10580.33	9736.78	9324.93	7274.95	7193.08	7186.62	7261.84	6855.0	7133.84	9905.23	11413.0	10772.24	9159.59	6056.09	5725.0	5542.5	5443.57	5452.11	5559.66	8058.49	8531.7	9483.06	10002.52	10453.5	8782.51	7046.47	5469.06	5100.0	5476.33	4930.0	5310.89	8684.89	10371.62	9593.04	9050.11	8047.72	7544.22	4783.91	4658.48	4648.49	4763.96	4305.0	4736.42	8345.99	10089.53	9661.59	7823.24	3739.15	3175.0	3099.25	2918.64	2934.53	3129.83	6620.06	7188.59	8295.45	8884.61	9474.6	7591.11	3225.39	2550.0	3303.97	2380.0	3092.74	5529.8	7535.71	9430.27	8659.81	8054.22	6908.83	6315.16	2419.05	2160.43	2138.8	2379.36	1755.0	2642.09	7362.24	9292.24	9146.38	7177.26	2071.53	625.0	1223.25	639.9	708.84	1298.78	5976.31	6600.52	7791.37	8415.9	9125.0	7150.0	1975.0		2201.64	170.0	1982.3	4950.73	7152.02	9126.58	8423.97	7800.09	6610.81	5987.67	1350.12	799.03	738.56	1277.63	9159.57	7194.06	2129.0	795.0	
8644.63	9344.53	12542.41	14076.41	8114.11	8215.96	8534.62	8762.08	11468.16	11921.38	12825.86	13318.21	13714.44	12134.77	10471.15	8789.82	8041.78	7650.0	7878.4	8640.59	12027.12	13619.28	12850.47	12339.48	11396.46	10921.48	8033.31	7784.58	7433.84	7321.12	7280.36	8099.03	11644.14	13282.29	12728.38	11008.12	7154.49	6212.58	5593.42	5740.16	6187.67	6497.82	9847.14	10371.44	11399.57	11950.82	12455.51	10691.43	8782.51	6656.94	5632.43	5100.0	5476.33	6525.4	10610.03	12385.71	11604.4	11035.86	9970.3	9423.71	5836.23	5488.83	4978.9	4808.98	4910.41	6058.28	10329.31	12146.1	11784.87	9902.03	5297.0	3932.89	3120.71	3376.68	4091.42	4546.88	8684.4	9274.66	10411.66	11012.47	11627.5	9714.2	4936.99	3432.67	2550.0	3303.97	4848.39	7591.11	9669.47	11590.16	10825.65	10213.85	9052.04	8446.23	4073.59	3558.05	2705.91	2378.83	2868.03	4562.48	9529.33	11473.5	11347.23	9376.92	4234.94	2311.73	1093.77	1690.99	2863.08	3483.04	8177.79	8802.09	9993.01	10617.54	11325.32	9350.39	4175.87	2201.64		2201.64	4175.87	7150.0	9350.39	11325.32	10617.54	9993.01	8802.09	8177.79	3483.04	2863.08	1690.99	1093.77	11347.23	9376.92	4234.94	2311.73	
8445.0	8672.87	11065.28	12433.17	8220.42	8154.05	8159.75	8232.0	10089.36	10471.19	11259.86	11700.7	12017.41	10595.99	9183.29	8065.55	7820.0	8041.78	7650.0	7900.83	10471.15	11907.48	11159.32	10696.19	9862.55	9456.18	7442.43	7362.44	7356.12	7429.63	7025.0	7297.35	10023.63	11515.91	10863.55	9266.8	6217.05	5895.0	5708.71	5612.71	5620.98	5725.37	8173.69	8640.59	9581.15	10095.56	10537.48	8882.31	7168.45	5627.92	5270.0	5632.43	5100.0	5469.06	8782.51	10453.5	9675.97	9137.97	8146.4	7649.4	4948.11	4826.95	4817.31	4928.83	4475.0	4891.45	8434.93	10163.23	9718.78	7893.76	3884.54	3345.0	3257.05	3085.69	3100.72	3286.16	6695.39	7258.02	8355.68	8940.88	9521.77	7649.9	3361.4	2720.0	3432.67	2550.0	3225.39	5607.65	7591.11	9474.6	8701.92	8099.47	6961.53	6372.77	2565.7	2323.46	2303.36	2528.31	1925.0	2757.94	7404.6	9325.84	9159.57	7194.06	2129.0	795.0	1277.63	738.56	799.03	1350.12	5987.67	6610.81	7800.09	8423.97	9126.58	7152.02	1982.3	170.0	2201.64		1975.0	4950.73	7150.0	9125.0	8415.9	7791.37	6600.52	5976.31	1298.78	708.84	639.9	1223.25	9146.38	7177.26	2071.53	625.0	
8672.87	8445.0	9904.48	11065.28	8726.1	8519.93	8244.62	8166.36	9062.13	9354.37	9996.72	10372.44	10595.99	9377.26	8287.39	7820.0	8065.55	8789.82	7900.83	7650.0	9235.97	10471.15	9757.64	9357.26	8667.65	8351.42	7369.77	7456.39	7759.72	7985.54	7297.35	7025.0	8725.32	10023.63	9266.8	7844.21	5895.0	6217.05	6415.52	6132.15	5743.5	5630.58	6865.59	7246.94	8059.05	8520.65	8882.31	7386.04	5977.86	5270.0	5627.92	6656.94	5469.06	5100.0	7265.72	8782.51	8019.07	7526.77	6649.97	6232.2	4838.12	4969.09	5413.62	5732.61	4891.45	4475.0	6841.51	8434.93	7893.76	6161.95	3345.0	3884.54	4379.25	3952.5	3317.65	3118.08	5015.5	5526.04	6554.95	7114.8	7649.9	5846.28	2720.0	3361.4	4936.99	3225.39	2550.0	3974.15	5769.15	7591.11	6812.08	6225.06	5130.41	4575.95	2346.58	2605.92	3377.31	3868.06	2757.94	1925.0	5521.44	7404.6	7194.06	5235.71	795.0	2129.0	3194.04	2578.03	1425.07	863.97	4022.35	4643.4	5830.21	6453.25	7152.02	5177.79	170.0	1982.3	4175.87	1975.0		2976.21	5175.0	7150.0	6442.71	5818.53	4628.73	4005.41	781.31	1376.53	2551.52	3172.68	7177.26	5212.6	625.0	2071.53	
9715.56	8873.57	8644.63	9344.53	10119.48	9753.44	9133.55	8855.43	8114.11	8215.96	8534.62	8762.08	8789.82	8041.78	7650.0	8287.39	9183.29	10471.15	9040.56	8128.95	7878.4	8640.59	8033.31	7784.58	7433.84	7321.12	8135.02	8436.93	9104.37	9495.47	8524.44	7550.78	7280.36	8099.03	7154.49	6212.58	6527.38	7632.73	8237.2	7783.13	6990.65	6623.15	5593.42	5740.16	6187.67	6497.82	6656.94	5632.43	5100.0	5977.86	7168.45	8782.51	7046.47	5831.02	5476.33	6525.4	5836.23	5488.83	4978.9	4808.98	5975.46	6380.38	7239.96	7726.02	6616.24	5303.09	4910.41	6058.28	5297.0	3932.89	4413.41	5927.07	6804.7	6247.36	5227.02	4724.26	3120.71	3376.68	4091.42	4546.88	4936.99	3432.67	3974.15	5607.65	7591.11	5529.8	3863.53	2550.0	3303.97	4848.39	4073.59	3558.05	2705.91	2378.83	4270.67	4820.97	5911.81	6497.99	5280.92	3498.03	2868.03	4562.48	4234.94	2311.73	3058.55	5000.66	6145.03	5521.51	4333.5	3711.62	1093.77	1690.99	2863.08	3483.04	4175.87	2201.64	2976.21	4950.73	7150.0	4950.73	2976.21		2201.64	4175.87	3483.04	2863.08	1690.99	1093.77	3711.62	4333.5	5521.51	6145.03	4234.94	2311.73	3058.55	5000.66	
11065.28	9904.48	8445.0	8672.87	11644.76	11206.07	10422.26	10043.42	8220.42	8154.05	8159.75	8232.0	8065.55	7820.0	8041.78	9377.26	10595.99	12134.77	10471.15	9235.97	7650.0	7900.83	7442.43	7362.44	7356.12	7429.63	9407.14	9810.58	10639.55	11100.65	10023.63	8725.32	7025.0	7297.35	6217.05	5895.0	7844.21	9266.8	10030.68	9517.88	8581.23	8116.92	5708.71	5612.71	5620.98	5725.37	5627.92	5270.0	5632.43	7386.04	8882.31	10691.43	8782.51	7265.72	5100.0	5469.06	4948.11	4826.95	4817.31	4928.83	7588.7	8083.41	9071.61	9608.25	8434.93	6841.51	4475.0	4891.45	3884.54	3345.0	6161.95	7893.76	8867.55	8283.06	7187.24	6625.96	3257.05	3085.69	3100.72	3286.16	3361.4	2720.0	5846.28	7649.9	9714.2	7591.11	5769.15	3432.67	2550.0	3225.39	2565.7	2323.46	2303.36	2528.31	6299.79	6887.7	8024.53	8626.55	7404.6	5521.44	1925.0	2757.94	2129.0	795.0	5235.71	7194.06	8346.1	7722.25	6533.03	5909.93	1277.63	738.56	799.03	1350.12	1982.3	170.0	5177.79	7152.02	9350.39	7150.0	5175.0	2201.64		1975.0	1298.78	708.84	639.9	1223.25	5898.42	6522.61	7713.43	8337.95	2071.53	625.0	5212.6	7177.26	
12433.17	11065.28	8672.87	8445.0	13130.59	12645.92	11758.33	11315.32	8726.1	8519.93	8244.62	8166.36	7820.0	8065.55	8789.82	10595.99	12017.41	13714.44	11907.48	10471.15	7900.83	7650.0	7369.77	7456.39	7759.72	7985.54	10754.55	11219.73	12146.74	12650.55	11515.91	10023.63	7297.35	7025.0	5895.0	6217.05	9266.8	10863.55	11722.9	11177.36	10162.3	9646.27	6415.52	6132.15	5743.5	5630.58	5270.0	5627.92	6656.94	8882.31	10537.48	12455.51	10453.5	8782.51	5469.06	5100.0	4838.12	4969.09	5413.62	5732.61	9206.22	9745.58	10799.88	11363.56	10163.23	8434.93	4891.45	4475.0	3345.0	3884.54	7893.76	9718.78	10744.56	10146.54	9016.17	8430.27	4379.25	3952.5	3317.65	3118.08	2720.0	3361.4	7649.9	9521.77	11627.5	9474.6	7591.11	4936.99	3225.39	2550.0	2346.58	2605.92	3377.31	3868.06	8176.4	8779.26	9936.62	10546.54	9325.84	7404.6	2757.94	1925.0	795.0	2129.0	7194.06	9159.57	10318.4	9694.14	8503.84	7879.94	3194.04	2578.03	1425.07	863.97	170.0	1982.3	7152.02	9126.58	11325.32	9125.0	7150.0	4175.87	1975.0		781.31	1376.53	2551.52	3172.68	7871.31	8495.84	9687.12	10311.81	625.0	2071.53	7177.26	9146.38	
12143.55	10869.54	8850.15	8789.13	12783.15	12321.1	11482.73	11069.1	8795.79	8643.15	8473.08	8450.0	8166.36	8232.0	8762.08	10372.44	11700.7	13318.21	11583.15	10239.65	8064.05	7997.03	7650.0	7675.49	7862.82	8030.31	10471.15	10907.48	11786.84	12269.02	11162.6	9761.39	7447.36	7374.74	6251.03	6336.54	8942.78	10454.29	11261.28	10733.92	9760.15	9269.98	6385.4	6173.45	5933.01	5900.0	5630.58	5725.37	6497.82	8520.65	10095.56	11950.82	10002.52	8410.2	5559.66	5462.0	5100.0	5138.15	5414.01	5654.5	8782.51	9298.42	10315.87	10863.54	9678.44	8022.05	4952.95	4843.07	3729.19	3870.81	7403.03	9171.9	10160.17	9572.33	8466.0	7895.89	4145.58	3811.04	3407.8	3350.0	3118.08	3286.16	7114.8	8940.88	11012.47	8884.61	7043.97	4546.88	3129.83	2952.87	2550.0	2625.48	3131.13	3530.7	7591.11	8182.49	9322.53	9925.17	8703.2	6813.72	2570.06	2351.35	1320.35	1679.2	6530.03	8482.94	9625.3	9002.62	7816.05	7194.62	2569.7	1985.32	1015.2	800.0	863.97	1350.12	6453.25	8423.97	10617.54	8415.9	6442.71	3483.04	1298.78	781.31		625.0	1817.0	2442.0	7150.0	7775.0	8967.0	9592.0	779.31	1297.57	6442.46	8415.71	
11719.38	10511.6	8782.98	8861.9	12321.1	11873.98	11069.1	10676.05	8643.15	8533.66	8450.0	8473.08	8244.62	8159.75	8534.62	9996.72	11259.86	12825.86	11137.66	9858.87	7990.27	8076.93	7675.49	7650.0	7742.31	7862.82	10054.76	10471.15	11318.63	11786.84	10699.62	9361.18	7367.42	7461.31	6352.93	6242.38	8504.13	9958.43	10733.92	10217.58	9269.98	8796.91	6173.45	6019.21	5900.0	5933.01	5743.5	5620.98	6187.67	8059.05	9581.15	11399.57	9483.06	7942.19	5452.11	5578.34	5138.15	5100.0	5237.45	5414.01	8281.64	8782.51	9777.47	10315.87	9140.59	7529.95	4831.91	4973.9	3897.59	3714.68	6866.71	8602.43	9572.33	8989.52	7895.89	7334.72	3811.04	3555.75	3350.0	3407.8	3317.65	3100.72	6554.95	8355.68	10411.66	8295.45	6477.99	4091.42	2934.53	3162.88	2625.48	2550.0	2814.85	3131.13	7005.58	7591.11	8723.04	9322.53	8100.85	6226.85	2328.27	2610.21	1740.03	1278.8	5915.08	7863.73	9002.62	8380.27	7194.62	6573.86	1985.32	1435.57	800.0	1015.2	1425.07	799.03	5830.21	7800.09	9993.01	7791.37	5818.53	2863.08	708.84	1376.53	625.0		1192.0	1817.0	6525.0	7150.0	8342.0	8967.0	1375.39	706.63	5818.26	7791.17	
10963.82	9902.7	8777.69	9118.59	11482.73	11069.1	10339.26	9992.17	8473.08	8450.0	8533.66	8643.15	8519.93	8154.05	8215.96	9354.37	10471.19	11921.38	10339.67	9206.91	7984.45	8357.77	7862.82	7742.31	7650.0	7675.49	9325.42	9696.4	10471.15	10907.48	9866.27	8671.88	7361.1	7764.45	6706.35	6234.93	7738.86	9057.14	9760.15	9269.98	8384.97	7953.04	5933.01	5900.0	6019.21	6173.45	6132.15	5612.71	5740.16	7246.94	8640.59	10371.44	8531.7	7116.75	5443.57	5977.73	5414.01	5237.45	5100.0	5138.15	7379.08	7842.69	8782.51	9298.42	8149.34	6653.57	4822.28	5418.04	4450.46	3702.14	5892.5	7540.77	8466.0	7895.89	6835.22	6297.89	3407.8	3350.0	3555.75	3811.04	3952.5	3085.69	5526.04	7258.02	9274.66	7188.59	5434.53	3376.68	2918.64	3823.51	3131.13	2814.85	2550.0	2625.48	5911.29	6480.76	7591.11	8182.49	6963.13	5132.59	2308.21	3380.62	2764.62	1241.91	4749.53	6685.79	7816.05	7194.62	6011.47	5392.67	1015.2	800.0	1435.57	1985.32	2578.03	738.56	4643.4	6610.81	8802.09	6600.52	4628.73	1690.99	639.9	2551.52	1817.0	1192.0		625.0	5333.0	5958.0	7150.0	7775.0	2550.91	637.46	4628.39	6600.28	
10599.75	9627.13	8839.38	9311.51	11069.1	10676.05	9992.17	9673.04	8450.0	8473.08	8643.15	8795.79	8726.1	8220.42	8114.11	9062.13	10089.36	11468.16	9952.8	8909.84	8052.23	8567.84	8030.31	7862.82	7675.49	7650.0	8982.64	9325.42	10054.76	10471.15	9460.05	8355.82	7434.56	7990.13	6966.4	6321.49	7382.96	8612.85	9269.98	8796.91	7953.04	7548.2	5900.0	5933.01	6173.45	6385.4	6415.52	5708.71	5593.42	6865.59	8173.69	9847.14	8058.49	6728.02	5542.5	6268.08	5654.5	5414.01	5138.15	5100.0	6940.84	7379.08	8281.64	8782.51	7652.52	6236.04	4933.68	5736.79	4833.45	3846.13	5416.61	7000.9	7895.89	7334.72	6297.89	5778.21	3350.0	3407.8	3811.04	4145.58	4379.25	3257.05	5015.5	6695.39	8684.4	6620.06	4914.5	3120.71	3099.25	4263.2	3530.7	3131.13	2625.48	2550.0	5354.23	5911.29	7005.58	7591.11	6374.53	4578.39	2532.73	3870.95	3346.45	1621.49	4144.41	6070.35	7194.62	6573.86	5392.67	4775.49	800.0	1015.2	1985.32	2569.7	3194.04	1277.63	4022.35	5987.67	8177.79	5976.31	4005.41	1093.77	1223.25	3172.68	2442.0	1817.0	625.0		4708.0	5333.0	6525.0	7150.0	3172.18	1221.98	4005.02	5976.05	
8850.15	8789.13	10556.03	11772.67	8795.79	8643.15	8473.08	8450.0	9673.04	9992.17	10676.05	11069.1	11315.32	10043.42	8855.43	8166.36	8232.0	8762.08	8064.05	7997.03	9906.23	11193.72	10471.15	10054.76	9325.42	8982.64	7650.0	7675.49	7862.82	8030.31	7447.36	7374.74	9411.04	10757.97	10021.09	8558.98	6251.03	6336.54	6385.4	6173.45	5933.01	5900.0	7548.2	7953.04	8796.91	9269.98	9646.27	8116.92	6623.15	5630.58	5725.37	6497.82	5559.66	5462.0	8000.9	9548.85	8782.51	8281.64	7379.08	6940.84	5100.0	5138.15	5414.01	5654.5	4952.95	4843.07	7591.85	9208.82	8674.9	6934.53	3729.19	3870.81	4145.58	3811.04	3407.8	3350.0	5778.21	6297.89	7334.72	7895.89	8430.27	6625.96	3118.08	3286.16	4546.88	3129.83	2952.87	4724.26	6549.83	8370.57	7591.11	7005.58	5911.29	5354.23	2550.0	2625.48	3131.13	3530.7	2570.06	2351.35	6301.56	8177.76	7942.94	5993.68	1320.35	1679.2	2569.7	1985.32	1015.2	800.0	4775.49	5392.67	6573.86	7194.62	7879.94	5909.93	863.97	1350.12	3483.04	1298.78	781.31	3711.62	5898.42	7871.31	7150.0	6525.0	5333.0	4708.0		625.0	1817.0	2442.0	7871.11	5898.15	779.31	1297.57	
8782.98	8861.9	10917.09	12199.09	8643.15	8533.66	8450.0	8473.08	9992.17	10339.26	11069.1	11482.73	11758.33	10422.26	9133.55	8244.62	8159.75	8534.62	7990.27	8076.93	10290.11	11641.36	10907.48	10471.15	9696.4	9325.42	7675.49	7650.0	7742.31	7862.82	7367.42	7461.31	9814.32	11223.0	10518.75	9000.52	6352.93	6242.38	6173.45	6019.21	5900.0	5933.01	7953.04	8384.97	9269.98	9760.15	10162.3	8581.23	6990.65	5743.5	5620.98	6187.67	5452.11	5578.34	8471.57	10069.87	9298.42	8782.51	7842.69	7379.08	5138.15	5100.0	5237.45	5414.01	4831.91	4973.9	8086.37	9748.04	9245.31	7472.67	3897.59	3714.68	3811.04	3555.75	3350.0	3407.8	6297.89	6835.22	7895.89	8466.0	9016.17	7187.24	3317.65	3100.72	4091.42	2934.53	3162.88	5227.02	7117.12	8960.38	8182.49	7591.11	6480.76	5911.29	2625.48	2550.0	2814.85	3131.13	2328.27	2610.21	6889.33	8780.53	8562.25	6608.88	1740.03	1278.8	1985.32	1435.57	800.0	1015.2	5392.67	6011.47	7194.62	7816.05	8503.84	6533.03	1425.07	799.03	2863.08	708.84	1376.53	4333.5	6522.61	8495.84	7775.0	7150.0	5958.0	5333.0	625.0		1192.0	1817.0	8495.66	6522.37	1375.39	706.63	
8777.69	9118.59	11667.71	13056.75	8473.08	8450.0	8533.66	8643.15	10676.05	11069.1	11873.98	12321.1	12645.92	11206.07	9753.44	8519.93	8154.05	8215.96	7984.45	8357.77	11083.28	12537.24	11786.84	11318.63	10471.15	10054.76	7862.82	7742.31	7650.0	7675.49	7361.1	7764.45	10643.0	12149.76	11502.4	9897.57	6706.35	6234.93	5933.01	5900.0	6019.21	6173.45	8796.91	9269.98	10217.58	10733.92	11177.36	9517.88	7783.13	6132.15	5612.71	5740.16	5443.57	5977.73	9419.13	11093.39	10315.87	9777.47	8782.51	8281.64	5414.01	5237.45	5100.0	5138.15	4822.28	5418.04	9074.25	10802.09	10350.69	8531.91	4450.46	3702.14	3407.8	3350.0	3555.75	3811.04	7334.72	7895.89	8989.52	9572.33	10146.54	8283.06	3952.5	3085.69	3376.68	2918.64	3823.51	6247.36	8222.29	10097.0	9322.53	8723.04	7591.11	7005.58	3131.13	2814.85	2550.0	2625.48	2308.21	3380.62	8025.92	9937.74	9745.42	7786.52	2764.62	1241.91	1015.2	800.0	1435.57	1985.32	6573.86	7194.62	8380.27	9002.62	9694.14	7722.25	2578.03	738.56	1690.99	639.9	2551.52	5521.51	7713.43	9687.12	8967.0	8342.0	7150.0	6525.0	1817.0	1192.0		625.0	9686.96	7713.23	2550.91	637.46	
8839.38	9311.51	12089.66	13526.71	8450.0	8473.08	8643.15	8795.79	11069.1	11482.73	12321.1	12783.15	13130.59	11644.76	10119.48	8726.1	8220.42	8114.11	8052.23	8567.84	11526.64	13025.95	12269.02	11786.84	10907.48	10471.15	8030.31	7862.82	7675.49	7650.0	7434.56	7990.13	11103.96	12653.45	12033.22	10391.65	6966.4	6321.49	5900.0	5933.01	6173.45	6385.4	9269.98	9760.15	10733.92	11261.28	11722.9	10030.68	8237.2	6415.52	5708.71	5593.42	5542.5	6268.08	9937.02	11642.87	10863.54	10315.87	9298.42	8782.51	5654.5	5414.01	5138.15	5100.0	4933.68	5736.79	9610.74	11365.67	10937.54	9100.43	4833.45	3846.13	3350.0	3407.8	3811.04	4145.58	7895.89	8466.0	9572.33	10160.17	10744.56	8867.55	4379.25	3257.05	3120.71	3099.25	4263.2	6804.7	8810.81	10697.78	9925.17	9322.53	8182.49	7591.11	3530.7	3131.13	2625.48	2550.0	2532.73	3870.95	8627.85	10547.6	10366.6	8405.61	3346.45	1621.49	800.0	1015.2	1985.32	2569.7	7194.62	7816.05	9002.62	9625.3	10318.4	8346.1	3194.04	1277.63	1093.77	1223.25	3172.68	6145.03	8337.95	10311.81	9592.0	8967.0	7775.0	7150.0	2442.0	1817.0	625.0		10311.66	8337.76	3172.18	1221.98	
12865.87	11549.35	9282.54	9070.0	13526.71	13056.75	12199.09	11772.67	9311.51	9118.59	8861.9	8789.13	8445.0	8672.87	9344.53	11065.28	12433.17	14076.41	12318.33	10936.09	8507.42	8275.0	7992.05	8072.0	8353.0	8563.19	11190.17	11637.94	12534.06	13022.9	11907.48	10471.15	7900.83	7650.0	6520.0	6812.56	9676.41	11214.99	12033.22	11502.4	10518.75	10021.09	6966.4	6706.35	6352.93	6251.03	5895.0	6217.05	7154.49	9266.8	10863.55	12728.38	10772.24	9159.59	6056.09	5725.0	5457.04	5573.48	5973.2	6263.76	9546.01	10067.18	11090.95	11640.55	10453.5	8782.51	5469.06	5100.0	3970.0	4434.13	8178.23	9951.21	10937.54	10350.69	9245.31	8674.9	4833.45	4450.46	3897.59	3729.19	3345.0	3884.54	7893.76	9718.78	11784.87	9661.59	7823.24	5297.0	3739.15	3175.0	2948.02	3158.35	3819.77	4259.84	8368.86	8958.78	10095.58	10696.44	9474.6	7591.11	3225.39	2550.0	1420.0	2432.49	7289.64	9234.83	10366.6	9745.42	8562.25	7942.94	3346.45	2764.62	1740.03	1320.35	795.0	2129.0	7194.06	9159.57	11347.23	9146.38	7177.26	4234.94	2071.53	625.0	779.31	1375.39	2550.91	3172.18	7871.11	8495.66	9686.96	10311.66		1975.0	7150.0	9125.0	
11549.35	10442.49	9070.0	9282.54	12089.66	11667.71	10917.09	10556.03	8839.38	8777.69	8782.98	8850.15	8672.87	8445.0	8644.63	9904.48	11065.28	12542.41	10936.09	9759.93	8275.0	8507.42	8059.11	7985.29	7979.46	8047.28	9902.21	10286.24	11079.69	11523.19	10471.15	9235.97	7650.0	7900.83	6812.56	6520.0	8324.12	9676.41	10391.65	9897.57	9000.52	8558.98	6321.49	6234.93	6242.38	6336.54	6217.05	5895.0	6212.58	7844.21	9266.8	11008.12	9159.59	7717.27	5725.0	6056.09	5554.79	5447.14	5438.6	5537.62	7997.51	8468.37	9416.26	9934.3	8782.51	7265.72	5100.0	5469.06	4434.13	3970.0	6522.39	8178.23	9100.43	8531.91	7472.67	6934.53	3846.13	3702.14	3714.68	3870.81	3884.54	3345.0	6161.95	7893.76	9902.03	7823.24	6071.35	3932.89	3175.0	3739.15	3125.25	2929.65	2913.73	3094.63	6547.65	7115.11	8220.55	8809.19	7591.11	5769.15	2550.0	3225.39	2432.49	1420.0	5366.29	7289.64	8405.61	7786.52	6608.88	5993.68	1621.49	1241.91	1278.8	1679.2	2129.0	795.0	5235.71	7194.06	9376.92	7177.26	5212.6	2311.73	625.0	2071.53	1297.57	706.63	637.46	1221.98	5898.15	6522.37	7713.23	8337.76	1975.0		5175.0	7150.0	
9282.54	9070.0	10442.49	11549.35	9311.51	9118.59	8861.9	8789.13	9627.13	9902.7	10511.6	10869.54	11065.28	9904.48	8873.57	8445.0	8672.87	9344.53	8507.42	8275.0	9759.93	10936.09	10235.76	9854.83	9202.58	8905.37	7992.05	8072.0	8353.0	8563.19	7900.83	7650.0	9235.97	10471.15	9676.41	8324.12	6520.0	6812.56	6966.4	6706.35	6352.93	6251.03	7382.96	7738.86	8504.13	8942.78	9266.8	7844.21	6527.38	5895.0	6217.05	7154.49	6056.09	5725.0	7717.27	9159.59	8406.98	7938.78	7112.95	6724.0	5457.04	5573.48	5973.2	6263.76	5469.06	5100.0	7265.72	8782.51	8178.23	6522.39	3970.0	4434.13	4833.45	4450.46	3897.59	3729.19	5416.61	5892.5	6866.71	7403.03	7893.76	6161.95	3345.0	3884.54	5297.0	3739.15	3175.0	4413.41	6071.35	7823.24	7041.93	6475.78	5431.9	4911.58	2948.02	3158.35	3819.77	4259.84	3225.39	2550.0	5769.15	7591.11	7289.64	5366.29	1420.0	2432.49	3346.45	2764.62	1740.03	1320.35	4144.41	4749.53	5915.08	6530.03	7194.06	5235.71	795.0	2129.0	4234.94	2071.53	625.0	3058.55	5212.6	7177.26	6442.46	5818.26	4628.39	4005.02	779.31	1375.39	2550.91	3172.18	7150.0	5175.0		1975.0	
9070.0	9282.54	11549.35	12865.87	8839.38	8777.69	8782.98	8850.15	10599.75	10963.82	11719.38	12143.55	12433.17	11065.28	9715.56	8672.87	8445.0	8644.63	8275.0	8507.42	10936.09	12318.33	11579.71	11134.08	10335.82	9948.8	8059.11	7985.29	7979.46	8047.28	7650.0	7900.83	10471.15	11907.48	11214.99	9676.41	6812.56	6520.0	6321.49	6234.93	6242.38	6336.54	8612.85	9057.14	9958.43	10454.29	10863.55	9266.8	7632.73	6217.05	5895.0	6212.58	5725.0	6056.09	9159.59	10772.24	9999.81	9480.21	8528.53	8055.13	5554.79	5447.14	5438.6	5537.62	5100.0	5469.06	8782.51	10453.5	9951.21	8178.23	4434.13	3970.0	3846.13	3702.14	3714.68	3870.81	7000.9	7540.77	8602.43	9171.9	9718.78	7893.76	3884.54	3345.0	3932.89	3175.0	3739.15	5927.07	7823.24	9661.59	8883.0	8293.72	7186.6	6617.9	3125.25	2929.65	2913.73	3094.63	2550.0	3225.39	7591.11	9474.6	9234.83	7289.64	2432.49	1420.0	1621.49	1241.91	1278.8	1679.2	6070.35	6685.79	7863.73	8482.94	9159.57	7194.06	2129.0	795.0	2311.73	625.0	2071.53	5000.66	7177.26	9146.38	8415.71	7791.17	6600.28	5976.05	1297.57	706.63	637.46	1221.98	9125.0	7150.0	1975.0		
