n: 152
deposito: 5
clusters: 31
factor: 1

xcoord[n]:
2100.0
2100.0
2100.0
2100.0
2100.0
2100.0
2100.0
2100.0
2348.0
2350.0
2348.0
2350.0
2348.0
2350.0
2348.0
2350.0
2625.0
2775.0
2625.0
2634.0
2607.0
2625.0
2775.0
2625.0
2607.0
2634.0
2625.0
2775.0
2625.0
2607.0
2634.0
2625.0
2775.0
2625.0
2634.0
2607.0
2825.0
2825.0
2825.0
2825.0
8349.0
8353.0
8349.0
8353.0
8349.0
8353.0
8349.0
8353.0
8474.0
8576.0
8575.0
8474.0
8576.0
8575.0
8474.0
8576.0
8575.0
8474.0
8576.0
8575.0
8625.0
8675.0
8675.0
8669.0
8625.0
8675.0
8675.0
8669.0
8625.0
8675.0
8675.0
8669.0
8625.0
8675.0
8675.0
8669.0
9250.0
9250.0
9250.0
9250.0
9250.0
9250.0
9250.0
9250.0
9498.0
9500.0
9498.0
9500.0
9498.0
9500.0
9498.0
9500.0
9784.0
9757.0
9775.0
9775.0
9784.0
9757.0
9775.0
9775.0
9784.0
9757.0
9775.0
9775.0
9784.0
9757.0
9775.0
9775.0
9925.0
9975.0
9925.0
9975.0
9925.0
9975.0
9925.0
9975.0
15499.0
15503.0
15499.0
15503.0
15499.0
15503.0
15499.0
15503.0
15624.0
15726.0
15775.0
15725.0
15624.0
15726.0
15775.0
15725.0
15624.0
15726.0
15775.0
15725.0
15624.0
15726.0
15775.0
15725.0
15825.0
15825.0
15819.0
15825.0
15825.0
15819.0
15825.0
15825.0
15819.0
15825.0
15825.0
15819.0

ycoord[n]:
1850.0
3000.0
4400.0
5550.0
6950.0
8100.0
9500.0
10650.0
11205.0
10050.0
8655.0
7500.0
6105.0
4950.0
3555.0
2400.0
11175.0
10995.0
10025.0
9748.0
9831.0
8625.0
8445.0
7475.0
7281.0
7198.0
6075.0
5895.0
4925.0
4731.0
4648.0
3525.0
3345.0
2375.0
2098.0
2181.0
3025.0
5575.0
8125.0
10675.0
10106.0
9397.0
7556.0
6847.0
5006.0
4297.0
2456.0
1747.0
1777.0
1803.0
2325.0
4327.0
4353.0
4875.0
6877.0
6903.0
7425.0
9427.0
9453.0
9975.0
9875.0
9675.0
9525.0
9450.0
7325.0
7125.0
6975.0
6900.0
4775.0
4575.0
4425.0
4350.0
2225.0
1875.0
2025.0
1800.0
1850.0
3000.0
4400.0
5550.0
6950.0
8100.0
9500.0
10650.0
11205.0
10050.0
8655.0
7500.0
6105.0
4950.0
3555.0
2400.0
2098.0
2181.0
2375.0
3525.0
4648.0
4731.0
4925.0
6075.0
7198.0
7281.0
7475.0
8625.0
9748.0
9831.0
10025.0
11175.0
10995.0
10675.0
8445.0
8125.0
5895.0
5575.0
3345.0
3025.0
10106.0
9397.0
7556.0
6847.0
5006.0
4297.0
2456.0
1747.0
1777.0
1803.0
2225.0
2325.0
4327.0
4353.0
4775.0
4875.0
6877.0
6903.0
7325.0
7425.0
9427.0
9453.0
9875.0
9975.0
9675.0
9525.0
9450.0
7125.0
6975.0
6900.0
4575.0
4425.0
4350.0
1875.0
2025.0
1800.0

color[n]:
#f06f9
#c994b1
#d4d4d5
#510ad1
#339c5e
#1abab9
#854ec
#bc1843
#bc1843
#7abda5
#fad104
#b7f97a
#510ad1
#d4d4d5
#c994b1
#f06f9
#bc1843
#bc1843
#7abda5
#7abda5
#7abda5
#fad104
#fad104
#b7f97a
#b7f97a
#b7f97a
#510ad1
#510ad1
#510ad1
#d4d4d5
#d4d4d5
#c994b1
#c994b1
#c994b1
#f06f9
#f06f9
#c994b1
#510ad1
#fad104
#7abda5
#ebf298
#ebf298
#6f6eed
#62b2cd
#ee8ccb
#ee8ccb
#7ec5da
#7ec5da
#7ec5da
#7ec5da
#7ec5da
#ee8ccb
#ee8ccb
#ee8ccb
#62b2cd
#62b2cd
#6f6eed
#ebf298
#ebf298
#ebf298
#ebf298
#ebf298
#ebf298
#ebf298
#6f6eed
#62b2cd
#62b2cd
#62b2cd
#ee8ccb
#ee8ccb
#ee8ccb
#ee8ccb
#7ec5da
#7ec5da
#7ec5da
#7ec5da
#a1fa36
#c36110
#382ab1
#9ffea7
#62b2cd
#723c3a
#98dc49
#a4cbb2
#b7941a
#98dc49
#37c31b
#f2e92d
#9ffea7
#382ab1
#c36110
#a1fa36
#a1fa36
#a1fa36
#a1fa36
#c36110
#382ab1
#382ab1
#382ab1
#9ffea7
#f2e92d
#f2e92d
#f2e92d
#37c31b
#98dc49
#98dc49
#98dc49
#b7941a
#b7941a
#b7941a
#37c31b
#37c31b
#9ffea7
#9ffea7
#c36110
#c36110
#9b3d92
#9b3d92
#f8d7fe
#d6a6cf
#a7ac21
#a7ac21
#42c075
#42c075
#42c075
#42c075
#42c075
#42c075
#a7ac21
#a7ac21
#a7ac21
#a7ac21
#d6a6cf
#d6a6cf
#f8d7fe
#f8d7fe
#9b3d92
#9b3d92
#9b3d92
#9b3d92
#9b3d92
#9b3d92
#9b3d92
#d6a6cf
#d6a6cf
#d6a6cf
#a7ac21
#a7ac21
#a7ac21
#42c075
#42c075
#42c075

Np[1]: 117 118 137 138 139 140 141 142 143  ;
Np[2]: 1 16 35 36  ;
Np[3]: 8 9 17 18  ;
Np[4]: 123 124 125 126 127 128 150 151 152  ;
Np[5]: 44 55 56 66 67 68 81  ;
Np[6]: 47 48 49 50 51 73 74 75 76  ;
Np[7]: 85 108 109 110  ;
Np[8]: 5  ;
Np[9]: 121 122 129 130 131 132 147 148 149  ;
Np[10]: 45 46 52 53 54 69 70 71 72  ;
Np[11]: 3 14 30 31  ;
Np[12]: 119 135 136  ;
Np[13]: 41 42 58 59 60 61 62 63 64  ;
Np[14]: 78 91 96 115 116  ;
Np[15]: 80 89 100 113 114  ;
Np[16]: 87 104 111 112  ;
Np[17]: 11 22 23 39  ;
Np[18]: 2 15 32 33 34 37  ;
Np[19]: 4 13 27 28 29 38  ;
Np[20]: 83 86 105 106 107  ;
Np[21]: 10 19 20 21 40  ;
Np[22]: 88 101 102 103  ;
Np[23]: 77 92 93 94 95  ;
Np[24]: 79 90 97 98 99  ;
Np[25]: 82  ;
Np[26]: 6  ;
Np[27]: 7  ;
Np[28]: 12 24 25 26  ;
Np[29]: 84  ;
Np[30]: 43 57 65  ;
Np[31]: 120 133 134 144 145 146  ;


c[n,n]:
	1150.0	2550.0	3700.0	5100.0	6250.0	7650.0	8800.0	9358.29	8203.81	6809.52	5655.53	4262.22	3110.06	1722.94	604.15	9339.77	9169.88	8191.84	7916.03	7997.09	6795.31	6629.45	5649.45	5454.61	5374.59	4257.49	4100.93	3119.5	2925.27	2848.5	1755.35	1640.32	742.46	588.78	605.48	1380.67	3794.9	6316.74	8854.73	10354.3	9800.88	8462.18	8004.37	7000.74	6714.75	6278.31	6253.85	6374.42	6476.17	6492.4	6838.38	6942.88	7146.77	8117.8	8214.1	8544.37	9901.45	9987.2	10389.48	10342.93	10220.63	10106.25	10045.48	8517.7	8429.49	8336.44	8285.79	7150.61	7117.32	7061.25	7028.64	6535.77	6575.05	6577.33	6569.19	7150.0	7241.89	7591.11	8050.62	8782.51	9496.58	10471.15	11338.54	11926.71	11045.36	10051.79	9310.34	8534.37	8023.09	7591.93	7420.41	7688.0	7664.15	7692.94	7855.65	8177.57	8181.06	8268.09	8761.06	9361.89	9387.51	9515.58	10237.49	11019.18	11060.11	11213.22	12077.3	12035.85	11827.77	10233.51	10069.32	8808.67	8711.56	7966.53	7962.18	15738.32	15381.73	14563.37	14304.21	13765.67	13624.54	13412.7	13403.4	13524.2	13626.08	13680.14	13633.28	13748.97	13853.98	13984.32	13956.76	14428.07	14532.75	14730.28	14721.46	15501.92	15603.64	15855.8	15863.68	15798.93	15725.18	15683.46	14703.78	14650.64	14618.94	13992.9	13964.46	13944.93	13725.02	13726.12	13719.09	
1150.0		1400.0	2550.0	3950.0	5100.0	6500.0	7650.0	8208.75	7054.43	5660.44	4506.94	3114.89	1965.96	607.89	650.0	8191.84	8023.44	7044.59	6769.1	6849.79	5649.45	5486.68	4505.69	4310.92	4231.83	3119.5	2972.65	1995.31	1803.72	1732.36	742.46	758.06	816.24	1048.22	963.23	725.43	2675.12	5176.03	7709.17	9462.83	8945.48	7733.51	7341.62	6563.08	6386.1	6272.63	6377.3	6490.27	6585.7	6510.09	6510.67	6615.83	6741.01	7460.5	7561.22	7842.59	9051.75	9142.2	9517.16	9478.46	9369.43	9263.17	9206.21	7828.23	7761.85	7683.18	7639.49	6762.12	6761.01	6727.65	6706.29	6570.86	6670.55	6646.9	6677.71	7241.89	7150.0	7285.77	7591.11	8168.54	8782.51	9662.94	10471.15	11047.73	10220.69	9311.79	8660.83	8023.18	7652.61	7418.79	7424.28	7736.76	7700.68	7700.41	7692.94	7858.74	7850.22	7912.73	8268.09	8755.97	8772.49	8884.33	9515.58	10226.41	10261.2	10404.63	11213.22	11187.08	10996.42	9533.03	9395.81	8343.36	8285.3	7832.6	7875.04	15166.69	14851.33	14152.4	13944.17	13548.33	13465.61	13410.04	13461.44	13579.19	13678.48	13696.94	13641.71	13588.95	13693.01	13789.72	13753.41	14068.75	14173.97	14342.64	14325.55	14973.47	15076.77	15305.92	15306.58	15262.09	15197.08	15159.6	14331.48	14289.03	14262.57	13815.07	13798.78	13785.26	13771.03	13759.59	13771.38	
2550.0	1400.0		1150.0	2550.0	3700.0	5100.0	6250.0	6809.52	5655.53	4262.22	3110.06	1722.94	604.15	880.64	2015.56	6795.31	6629.45	5649.45	5374.59	5454.61	4257.49	4100.93	3119.5	2925.27	2848.5	1755.35	1640.32	742.46	605.48	588.78	1020.42	1252.46	2091.95	2363.13	2276.18	1554.43	1380.67	3794.9	6316.74	8462.18	8004.37	7000.74	6714.75	6278.31	6253.85	6544.4	6792.53	6892.61	6977.32	6799.36	6374.42	6476.17	6492.4	6838.38	6942.88	7146.77	8117.8	8214.1	8544.37	8517.7	8429.49	8336.44	8285.79	7150.61	7117.32	7061.25	7028.64	6535.77	6577.33	6575.05	6569.19	6877.95	7043.17	6990.8	7064.83	7591.11	7285.77	7150.0	7241.89	7591.11	8050.62	8782.51	9496.58	10051.79	9310.34	8534.37	8023.09	7591.93	7420.41	7446.1	7665.51	8021.41	7972.05	7937.65	7724.72	7688.0	7664.15	7692.94	7855.65	8177.57	8181.06	8268.09	8761.06	9361.89	9387.51	9515.58	10237.49	10233.51	10069.32	8808.67	8711.56	7966.53	7962.18	7895.8	7994.14	14563.37	14304.21	13765.67	13624.54	13412.7	13403.4	13539.29	13663.05	13776.02	13871.28	13846.89	13782.1	13524.2	13626.08	13680.14	13633.28	13748.97	13853.98	13984.32	13956.76	14428.07	14532.75	14730.28	14721.46	14703.78	14650.64	14618.94	13992.9	13964.46	13944.93	13726.12	13725.02	13719.09	13955.33	13928.97	13963.2	
3700.0	2550.0	1150.0		1400.0	2550.0	3950.0	5100.0	5660.44	4506.94	3114.89	1965.96	607.89	650.0	2010.36	3159.91	5649.45	5486.68	4505.69	4231.83	4310.92	3119.5	2972.65	1995.31	1803.72	1732.36	742.46	758.06	816.24	963.23	1048.22	2091.95	2306.0	3218.11	3493.06	3406.94	2627.02	725.43	2675.12	5176.03	7733.51	7341.62	6563.08	6386.1	6272.63	6377.3	6973.01	7318.66	7406.98	7481.88	7233.69	6490.27	6585.7	6510.09	6510.67	6615.83	6741.01	7460.5	7561.22	7842.59	7828.23	7761.85	7683.18	7639.49	6762.12	6761.01	6727.65	6706.29	6570.86	6646.9	6670.55	6677.71	7323.34	7532.35	7460.31	7564.01	8050.62	7591.11	7241.89	7150.0	7285.77	7591.11	8168.54	8782.51	9311.79	8660.83	8023.18	7652.61	7418.79	7424.28	7662.27	8042.54	8423.79	8365.39	8305.8	7937.65	7736.76	7700.68	7700.41	7692.94	7858.74	7850.22	7912.73	8268.09	8755.97	8772.49	8884.33	9515.58	9533.03	9395.81	8343.36	8285.3	7832.6	7875.04	8129.74	8269.9	14152.4	13944.17	13548.33	13465.61	13410.04	13461.44	13751.58	13932.09	14040.45	14131.8	14073.42	14001.47	13579.19	13678.48	13696.94	13641.71	13588.95	13693.01	13789.72	13753.41	14068.75	14173.97	14342.64	14325.55	14331.48	14289.03	14262.57	13815.07	13798.78	13785.26	13759.59	13771.03	13771.38	14208.49	14170.44	14222.29	
5100.0	3950.0	2550.0	1400.0		1150.0	2550.0	3700.0	4262.22	3110.06	1722.94	604.15	880.64	2015.56	3404.05	4556.86	4257.49	4100.93	3119.5	2848.5	2925.27	1755.35	1640.32	742.46	605.48	588.78	1020.42	1252.46	2091.95	2276.18	2363.13	3465.0	3667.65	4605.02	4881.3	4795.87	3991.4	1554.43	1380.67	3794.9	7000.74	6714.75	6278.31	6253.85	6544.4	6792.53	7697.14	8134.57	8209.01	8272.25	7957.15	6892.61	6977.32	6799.36	6374.42	6476.17	6492.4	6838.38	6942.88	7146.77	7150.61	7117.32	7061.25	7028.64	6535.77	6577.33	6575.05	6569.19	6877.95	6990.8	7043.17	7064.83	8056.13	8305.8	8215.0	8347.11	8782.51	8168.54	7591.11	7285.77	7150.0	7241.89	7591.11	8050.62	8534.37	8023.09	7591.93	7420.41	7446.1	7665.51	8139.81	8686.92	9087.67	9020.7	8935.11	8404.54	8021.41	7972.05	7937.65	7724.72	7688.0	7664.15	7692.94	7855.65	8177.57	8181.06	8268.09	8761.06	8808.67	8711.56	7966.53	7962.18	7895.8	7994.14	8615.49	8798.93	13765.67	13624.54	13412.7	13403.4	13539.29	13663.05	14132.56	14377.47	14479.59	14565.7	14468.28	14388.58	13776.02	13871.28	13846.89	13782.1	13524.2	13626.08	13680.14	13633.28	13748.97	13853.98	13984.32	13956.76	13992.9	13964.46	13944.93	13726.12	13725.02	13719.09	13928.97	13955.33	13963.2	14633.22	14581.88	14653.79	
6250.0	5100.0	3700.0	2550.0	1150.0		1400.0	2550.0	3114.89	1965.96	607.89	650.0	2010.36	3159.91	4551.76	5705.48	3119.5	2972.65	1995.31	1732.36	1803.72	742.46	758.06	816.24	963.23	1048.22	2091.95	2306.0	3218.11	3406.94	3493.06	4605.02	4802.67	5749.02	6025.71	5940.67	5126.52	2627.02	725.43	2675.12	6563.08	6386.1	6272.63	6377.3	6973.01	7318.66	8420.5	8914.07	8978.21	9032.76	8676.19	7406.98	7481.88	7233.69	6490.27	6585.7	6510.09	6510.67	6615.83	6741.01	6762.12	6761.01	6727.65	6706.29	6570.86	6646.9	6670.55	6677.71	7323.34	7460.31	7532.35	7564.01	8780.16	9054.35	8951.89	9101.74	9496.58	8782.51	8050.62	7591.11	7241.89	7150.0	7285.77	7591.11	8023.18	7652.61	7418.79	7424.28	7662.27	8042.54	8682.59	9340.77	9750.27	9678.03	9575.03	8935.11	8423.79	8365.39	8305.8	7937.65	7736.76	7700.68	7700.41	7692.94	7858.74	7850.22	7912.73	8268.09	8343.36	8285.3	7832.6	7875.04	8129.74	8269.9	9156.45	9368.63	13548.33	13465.61	13410.04	13461.44	13751.58	13932.09	14539.19	14832.43	14929.13	15010.67	14883.59	14798.35	14040.45	14131.8	14073.42	14001.47	13579.19	13678.48	13696.94	13641.71	13588.95	13693.01	13789.72	13753.41	13815.07	13798.78	13785.26	13759.59	13771.03	13771.38	14170.44	14208.49	14222.29	15070.71	15009.37	15096.39	
7650.0	6500.0	5100.0	3950.0	2550.0	1400.0		1150.0	1722.94	604.15	880.64	2015.56	3404.05	4556.86	5950.17	7104.4	1755.35	1640.32	742.46	588.78	605.48	1020.42	1252.46	2091.95	2276.18	2363.13	3465.0	3667.65	4605.02	4795.87	4881.3	5998.02	6191.9	7144.32	7421.24	7336.54	6515.46	3991.4	1554.43	1380.67	6278.31	6253.85	6544.4	6792.53	7697.14	8134.57	9416.37	9960.37	10013.62	10058.95	9664.69	8209.01	8272.25	7957.15	6892.61	6977.32	6799.36	6374.42	6476.17	6492.4	6535.77	6577.33	6575.05	6569.19	6877.95	6990.8	7043.17	7064.83	8056.13	8215.0	8305.8	8347.11	9772.47	10068.33	9955.21	10121.35	10471.15	9662.94	8782.51	8168.54	7591.11	7285.77	7150.0	7241.89	7591.93	7420.41	7446.1	7665.51	8139.81	8686.92	9490.7	10255.24	10669.28	10592.33	10472.4	9726.57	9087.67	9020.7	8935.11	8404.54	8021.41	7972.05	7937.65	7724.72	7688.0	7664.15	7692.94	7855.65	7966.53	7962.18	7895.8	7994.14	8615.49	8798.93	9955.63	10195.16	13412.7	13403.4	13539.29	13663.05	14132.56	14377.47	15137.74	15483.84	15573.8	15649.65	15489.71	15398.74	14479.59	14565.7	14468.28	14388.58	13776.02	13871.28	13846.89	13782.1	13524.2	13626.08	13680.14	13633.28	13726.12	13725.02	13719.09	13928.97	13955.33	13963.2	14581.88	14633.22	14653.79	15700.84	15628.54	15732.16	
8800.0	7650.0	6250.0	5100.0	3700.0	2550.0	1150.0		607.89	650.0	2010.36	3159.91	4551.76	5705.48	7099.33	8253.79	742.46	758.06	816.24	1048.22	963.23	2091.95	2306.0	3218.11	3406.94	3493.06	4605.02	4802.67	5749.02	5940.67	6025.71	7144.32	7336.12	8291.64	8568.66	8484.16	7659.39	5126.52	2627.02	725.43	6272.63	6377.3	6973.01	7318.66	8420.5	8914.07	10304.93	10879.5	10925.11	10963.94	10546.62	8978.21	9032.76	8676.19	7406.98	7481.88	7233.69	6490.27	6585.7	6510.09	6570.86	6646.9	6670.55	6677.71	7323.34	7460.31	7532.35	7564.01	8780.16	8951.89	9054.35	9101.74	10656.28	10965.0	10845.33	11021.54	11338.54	10471.15	9496.58	8782.51	8050.62	7591.11	7241.89	7150.0	7418.79	7424.28	7662.27	8042.54	8682.59	9340.77	10250.34	11082.53	11496.98	11417.25	11286.33	10472.4	9750.27	9678.03	9575.03	8935.11	8423.79	8365.39	8305.8	7937.65	7736.76	7700.68	7700.41	7692.94	7832.6	7875.04	8129.74	8269.9	9156.45	9368.63	10704.84	10961.58	13410.04	13461.44	13751.58	13932.09	14539.19	14832.43	15705.89	16090.49	16174.94	16246.15	16061.95	15967.04	14929.13	15010.67	14883.59	14798.35	14040.45	14131.8	14073.42	14001.47	13579.19	13678.48	13696.94	13641.71	13759.59	13771.03	13771.38	14170.44	14208.49	14222.29	15009.37	15070.71	15096.39	16290.37	16210.07	16325.85	
9358.29	8208.75	6809.52	5660.44	4262.22	3114.89	1722.94	607.89		1155.0	2550.0	3705.0	5100.0	6255.0	7650.0	8805.0	278.62	475.85	1212.08	1484.8	1398.2	2594.83	2792.84	3740.27	3932.54	4017.19	5137.47	5327.14	6286.11	6479.18	6563.23	7684.99	7871.59	8834.34	9111.49	9027.72	8193.9	5650.17	3116.72	713.04	6100.8	6271.27	7023.33	7419.72	8627.84	9153.17	10609.29	11203.29	11243.45	11277.66	10845.73	9210.58	9259.48	8879.44	7500.63	7569.36	7284.5	6378.81	6469.74	6347.32	6416.36	6509.36	6546.25	6560.11	7379.37	7528.43	7610.77	7647.75	8985.86	9164.49	9273.58	9324.49	10956.33	11272.97	11149.14	11331.77	11625.56	10721.92	9692.56	8922.82	8108.18	7568.26	7109.47	6924.28	7150.0	7244.66	7591.11	8054.7	8782.51	9501.38	10471.15	11343.68	11757.19	11675.87	11538.16	10683.76	9914.05	9839.0	9726.19	9026.47	8446.9	8383.98	8311.03	7862.36	7577.4	7535.33	7520.15	7427.06	7579.91	7645.39	8064.03	8225.42	9252.41	9479.87	10917.44	11184.07	13196.84	13278.66	13647.86	13858.07	14538.79	14858.48	15795.37	16202.09	16283.1	16351.41	16153.16	16056.11	14951.89	15030.66	14887.22	14799.09	13963.66	14052.69	13976.36	13900.81	13394.53	13492.23	13492.71	13433.43	13563.57	13581.31	13584.84	14081.05	14125.24	14142.17	15019.53	15086.35	15114.86	16391.41	16306.5	16429.3	
8203.81	7054.43	5655.53	4506.94	3110.06	1965.96	604.15	650.0	1155.0		1395.0	2550.0	3945.0	5100.0	6495.0	7650.0	1158.12	1036.17	276.13	414.56	337.65	1451.29	1660.32	2589.64	2780.9	2866.11	3984.5	4176.68	5132.37	5325.21	5409.46	6530.79	6718.46	7679.93	7957.07	7873.2	7041.04	4500.14	1982.74	785.02	5999.26	6038.41	6496.77	6804.06	7837.73	8314.63	9677.65	10245.77	10293.0	10333.25	9921.0	8381.89	8439.13	8095.14	6897.2	6976.15	6755.83	6155.61	6254.56	6225.45	6277.44	6336.11	6346.75	6347.42	6841.14	6968.59	7032.87	7060.61	8197.64	8365.48	8464.41	8509.98	10030.27	10336.16	10217.94	10391.93	10716.81	9864.71	8918.1	8237.72	7564.39	7170.25	6921.89	6926.04	7240.71	7150.0	7282.85	7591.11	8164.37	8782.51	9658.1	10471.15	10885.71	10806.7	10678.78	9884.65	9189.45	9118.96	9021.99	8422.07	7962.3	7907.66	7858.83	7560.51	7440.13	7410.24	7425.04	7509.74	7633.72	7650.57	7743.17	7864.24	8639.71	8841.17	10116.21	10367.8	13149.12	13169.2	13383.43	13537.38	14083.26	14356.13	15184.37	15554.46	15641.02	15714.02	15539.02	15445.59	14455.17	14538.68	14424.16	14341.24	13647.97	13741.21	13698.77	13630.16	13288.61	13389.32	13426.14	13375.21	13480.22	13485.22	13482.36	13788.81	13821.41	13832.44	14544.8	14601.93	14625.46	15760.91	15683.63	15794.82	
6809.52	5660.44	4262.22	3114.89	1722.94	607.89	880.64	2010.36	2550.0	1395.0		1155.0	2550.0	3705.0	5100.0	6255.0	2535.18	2378.64	1397.72	1129.8	1204.18	278.62	475.85	1212.08	1398.2	1484.8	2594.83	2792.84	3740.27	3932.54	4017.19	5137.47	5327.14	6286.11	6563.23	6479.18	5650.17	3116.72	713.04	2075.56	6173.93	6050.67	6100.8	6271.27	7023.33	7419.72	8627.84	9153.17	9210.58	9259.48	8879.44	7500.63	7569.36	7284.5	6378.81	6469.74	6347.32	6174.45	6278.92	6365.37	6394.46	6408.69	6386.53	6370.8	6416.36	6509.36	6546.25	6560.11	7379.37	7528.43	7610.77	7647.75	8985.86	9273.58	9164.49	9324.49	9692.56	8922.82	8108.18	7568.26	7109.47	6924.28	6953.53	7184.54	7591.11	7286.78	7150.0	7244.66	7591.11	8054.7	8782.51	9501.38	9914.05	9839.0	9726.19	9026.47	8446.9	8383.98	8311.03	7862.36	7577.4	7535.33	7520.15	7427.06	7515.9	7501.75	7552.3	7842.88	7930.1	7889.96	7579.91	7645.39	8064.03	8225.42	9252.41	9479.87	13230.81	13175.91	13196.84	13278.66	13647.86	13858.07	14538.79	14858.48	14951.89	15030.66	14887.22	14799.09	13963.66	14052.69	13976.36	13900.81	13394.53	13492.23	13492.71	13433.43	13298.43	13401.78	13482.31	13441.97	13515.54	13505.05	13494.44	13563.57	13581.31	13584.84	14081.05	14125.24	14142.17	15086.35	15019.53	15114.86	
5655.53	4506.94	3110.06	1965.96	604.15	650.0	2015.56	3159.91	3705.0	2550.0	1155.0		1395.0	2550.0	3945.0	5100.0	3685.27	3520.75	2539.93	2265.87	2345.12	1158.12	1036.17	276.13	337.65	414.56	1451.29	1660.32	2589.64	2780.9	2866.11	3984.5	4176.68	5132.37	5409.46	5325.21	4500.14	1982.74	785.02	3210.33	6540.58	6295.6	5999.26	6038.41	6496.77	6804.06	7837.73	8314.63	8381.89	8439.13	8095.14	6897.2	6976.15	6755.83	6155.61	6254.56	6225.45	6420.02	6525.13	6698.97	6709.42	6688.52	6641.25	6613.04	6277.44	6336.11	6346.75	6347.42	6841.14	6968.59	7032.87	7060.61	8197.64	8464.41	8365.48	8509.98	8918.1	8237.72	7564.39	7170.25	6921.89	6926.04	7184.01	7585.02	8051.14	7591.11	7240.71	7150.0	7282.85	7591.11	8164.37	8782.51	9189.45	9118.96	9021.99	8422.07	7962.3	7907.66	7858.83	7560.51	7440.13	7410.24	7425.04	7509.74	7766.46	7765.13	7842.59	8284.7	8342.4	8259.62	7633.72	7650.57	7743.17	7864.24	8639.71	8841.17	13404.75	13289.09	13149.12	13169.2	13383.43	13537.38	14083.26	14356.13	14455.17	14538.68	14424.16	14341.24	13647.97	13741.21	13698.77	13630.16	13288.61	13389.32	13426.14	13375.21	13413.14	13517.82	13633.46	13602.07	13649.4	13626.31	13609.43	13480.22	13485.22	13482.36	13788.81	13821.41	13832.44	14601.93	14544.8	14625.46	
4262.22	3114.89	1722.94	607.89	880.64	2010.36	3404.05	4551.76	5100.0	3945.0	2550.0	1395.0		1155.0	2550.0	3705.0	5077.56	4908.61	3929.77	3654.21	3734.99	2535.18	2378.64	1397.72	1204.18	1129.8	278.62	475.85	1212.08	1398.2	1484.8	2594.83	2792.84	3740.27	4017.19	3932.54	3116.72	713.04	2075.56	4594.83	7212.49	6848.16	6173.93	6050.67	6100.8	6271.27	7023.33	7419.72	7500.63	7569.36	7284.5	6378.81	6469.74	6347.32	6174.45	6278.92	6365.37	6968.76	7070.86	7331.6	7322.13	7264.7	7192.17	7151.51	6394.46	6408.69	6386.53	6370.8	6416.36	6509.36	6546.25	6560.11	7379.37	7610.77	7528.43	7647.75	8108.18	7568.26	7109.47	6924.28	6953.53	7184.54	7691.79	8264.06	8782.51	8167.87	7591.11	7286.78	7150.0	7244.66	7591.11	8054.7	8446.9	8383.98	8311.03	7862.36	7577.4	7535.33	7520.15	7427.06	7515.9	7501.75	7552.3	7842.88	8280.43	8293.15	8398.02	8992.51	9017.93	8891.35	7930.1	7889.96	7579.91	7645.39	8064.03	8225.42	13746.16	13560.65	13230.81	13175.91	13196.84	13278.66	13647.86	13858.07	13963.66	14052.69	13976.36	13900.81	13394.53	13492.23	13492.71	13433.43	13298.43	13401.78	13482.31	13441.97	13685.32	13790.58	13946.23	13925.55	13941.82	13904.17	13880.09	13515.54	13505.05	13494.44	13563.57	13581.31	13584.84	14125.24	14081.05	14142.17	
3110.06	1965.96	604.15	650.0	2015.56	3159.91	4556.86	5705.48	6255.0	5100.0	3705.0	2550.0	1155.0		1395.0	2550.0	6231.07	6059.92	5082.45	4806.4	4887.76	3685.27	3520.75	2539.93	2345.12	2265.87	1158.12	1036.17	276.13	337.65	414.56	1451.29	1660.32	2589.64	2866.11	2780.9	1982.74	785.02	3210.33	5744.67	7910.27	7470.73	6540.58	6295.6	5999.26	6038.41	6496.77	6804.06	6897.2	6976.15	6755.83	6155.61	6254.56	6225.45	6420.02	6525.13	6698.97	7585.97	7683.75	8000.08	7976.92	7895.01	7806.17	7757.56	6709.42	6688.52	6641.25	6613.04	6277.44	6336.11	6346.75	6347.42	6841.14	7032.87	6968.59	7060.61	7564.39	7170.25	6921.89	6926.04	7184.01	7585.02	8265.14	8949.86	9498.36	8782.51	8051.14	7591.11	7240.71	7150.0	7282.85	7591.11	7962.3	7907.66	7858.83	7560.51	7440.13	7410.24	7425.04	7509.74	7766.46	7765.13	7842.59	8284.7	8847.89	8870.61	8993.68	9689.23	9691.37	9535.0	8342.4	8259.62	7633.72	7650.57	7743.17	7864.24	14123.76	13884.42	13404.75	13289.09	13149.12	13169.2	13383.43	13537.38	13647.97	13741.21	13698.77	13630.16	13288.61	13389.32	13426.14	13375.21	13413.14	13517.82	13633.46	13602.07	14008.66	14113.62	14299.87	14287.8	14279.4	14230.47	14200.84	13649.4	13626.31	13609.43	13480.22	13485.22	13482.36	13821.41	13788.81	13832.44	
1722.94	607.89	880.64	2010.36	3404.05	4551.76	5950.17	7099.33	7650.0	6495.0	5100.0	3945.0	2550.0	1395.0		1155.0	7625.03	7452.24	6475.93	6199.6	6281.34	5077.56	4908.61	3929.77	3734.99	3654.21	2535.18	2378.64	1397.72	1204.18	1129.8	278.62	475.85	1212.08	1484.8	1398.2	713.04	2075.56	4594.83	7135.96	8884.12	8377.89	7212.49	6848.16	6173.93	6050.67	6100.8	6271.27	6378.81	6469.74	6347.32	6174.45	6278.92	6365.37	6968.76	7070.86	7331.6	8485.77	8577.55	8943.82	8907.48	8802.58	8698.96	8643.27	7322.13	7264.7	7192.17	7151.51	6394.46	6408.69	6386.53	6370.8	6416.36	6546.25	6509.36	6560.11	7109.47	6924.28	6953.53	7184.54	7691.79	8264.06	9109.37	9898.31	10471.15	9661.06	8782.51	8167.87	7591.11	7286.78	7150.0	7244.66	7577.4	7535.33	7520.15	7427.06	7515.9	7501.75	7552.3	7842.88	8280.43	8293.15	8398.02	8992.51	9677.16	9709.86	9849.94	10640.71	10619.06	10433.86	9017.93	8891.35	7930.1	7889.96	7579.91	7645.39	14692.32	14393.85	13746.16	13560.65	13230.81	13175.91	13196.84	13278.66	13394.53	13492.23	13492.71	13433.43	13298.43	13401.78	13482.31	13441.97	13685.32	13790.58	13946.23	13925.55	14516.63	14620.44	14840.04	14837.81	14801.48	14740.1	14704.38	13941.82	13904.17	13880.09	13515.54	13505.05	13494.44	13581.31	13563.57	13584.84	
604.15	650.0	2015.56	3159.91	4556.86	5705.48	7104.4	8253.79	8805.0	7650.0	6255.0	5100.0	3705.0	2550.0	1155.0		8779.31	8605.5	7629.96	7353.49	7435.44	6231.07	6059.92	5082.45	4887.76	4806.4	3685.27	3520.75	2539.93	2345.12	2265.87	1158.12	1036.17	276.13	414.56	337.65	785.02	3210.33	5744.67	8288.62	9765.78	9219.22	7910.27	7470.73	6540.58	6295.6	5999.26	6038.41	6155.61	6254.56	6225.45	6420.02	6525.13	6698.97	7585.97	7683.75	8000.08	9321.06	9407.86	9804.65	9759.67	9640.09	9527.39	9467.43	7976.92	7895.01	7806.17	7757.56	6709.42	6688.52	6641.25	6613.04	6277.44	6346.75	6336.11	6347.42	6921.89	6926.04	7184.01	7585.02	8265.14	8949.86	9900.51	10755.12	11341.16	10471.15	9498.36	8782.51	8051.14	7591.11	7240.71	7150.0	7440.13	7410.24	7425.04	7509.74	7766.46	7765.13	7842.59	8284.7	8847.89	8870.61	8993.68	9689.23	10452.63	10492.06	10642.9	11494.84	11456.64	11252.39	9691.37	9535.0	8342.4	8259.62	7633.72	7650.57	15240.69	14898.3	14123.76	13884.42	13404.75	13289.09	13149.12	13169.2	13288.61	13389.32	13426.14	13375.21	13413.14	13517.82	13633.46	13602.07	14008.66	14113.62	14299.87	14287.8	15019.25	15121.58	15365.75	15371.12	15313.43	15242.74	15202.51	14279.4	14230.47	14200.84	13649.4	13626.31	13609.43	13485.22	13480.22	13482.36	
9339.77	8191.84	6795.31	5649.45	4257.49	3119.5	1755.35	742.46	278.62	1158.12	2535.18	3685.27	5077.56	6231.07	7625.03	8779.31		234.31	1150.0	1427.03	1344.12	2550.0	2734.12	3700.0	3894.04	3977.01	5100.0	5282.13	6250.0	6444.03	6527.01	7650.0	7831.44	8800.0	9077.0	8994.02	8152.45	5603.57	3056.55	538.52	5822.97	5997.61	6772.1	7179.25	8415.51	8950.8	10430.01	11031.64	11069.47	11101.75	10664.19	9005.88	9052.85	8665.59	7258.35	7325.6	7033.14	6104.61	6195.13	6069.8	6139.22	6233.18	6270.96	6285.34	7128.99	7280.45	7364.95	7403.08	8772.68	8953.35	9064.49	9116.5	10775.09	11094.71	10969.28	11154.4	11438.8	10522.42	9475.82	8690.87	7857.56	7303.85	6833.47	6645.77	6873.07	6966.44	7320.42	7795.59	8540.67	9274.49	10261.7	11147.48	11560.42	11478.57	11338.54	10471.15	9687.78	9612.0	9496.58	8782.51	8189.49	8125.8	8050.62	7591.11	7299.84	7257.53	7241.89	7150.0	7302.22	7366.99	7793.77	7957.7	9009.35	9240.27	10705.09	10974.74	12918.31	13000.16	13373.0	13585.82	14275.73	14599.65	15548.66	15960.27	16040.46	16108.09	15906.76	15809.25	14692.48	14770.78	14624.72	14536.16	13691.12	13779.92	13702.01	13626.17	13116.0	13213.69	13214.1	13154.85	13284.95	13302.73	13306.29	13807.34	13852.08	13869.29	14758.05	14825.74	14854.71	16147.14	16061.21	16185.56	
9169.88	8023.44	6629.45	5486.68	4100.93	2972.65	1640.32	758.06	475.85	1036.17	2378.64	3520.75	4908.61	6059.92	7452.24	8605.5	234.31		981.53	1254.95	1176.06	2374.74	2550.0	3523.19	3717.8	3799.62	4922.29	5100.0	6071.85	6266.25	6348.57	7471.51	7650.0	8621.31	8898.12	8815.6	7970.16	5420.23	2870.44	323.88	5644.45	5802.39	6549.52	6951.26	8181.54	8716.5	10197.25	10799.98	10837.44	10869.43	10431.15	8771.59	8818.6	8431.75	7031.11	7099.02	6810.65	5910.77	6002.45	5889.01	5956.25	6045.86	6080.37	6093.13	6905.9	7055.98	7139.36	7176.93	8538.79	8719.31	8830.34	8882.3	10542.08	10862.06	10736.43	10921.87	11205.21	10288.13	9242.28	8460.12	7634.63	7092.72	6645.35	6484.18	6726.28	6791.07	7118.59	7578.96	8313.29	9042.55	10027.58	10913.28	11326.19	11244.33	11104.25	10237.23	9455.71	9380.09	9265.25	8556.07	7971.4	7908.36	7835.2	7390.32	7119.07	7078.36	7066.89	7002.31	7150.0	7207.11	7591.11	7750.93	8782.51	9012.01	10471.15	10740.62	12755.02	12827.92	13180.55	13386.86	14063.01	14382.81	15323.66	15733.01	15813.55	15881.48	15681.61	15584.33	14476.15	14554.88	14411.4	14323.3	13492.77	13582.08	13508.1	13433.07	12944.32	13042.48	13048.16	12990.11	13116.59	13132.53	13135.18	13611.74	13655.14	13671.68	14543.69	14610.52	14639.06	15920.96	15835.51	15959.13	
8191.84	7044.59	5649.45	4505.69	3119.5	1995.31	742.46	816.24	1212.08	276.13	1397.72	2539.93	3929.77	5082.45	6475.93	7629.96	1150.0	981.53		277.15	194.83	1400.0	1587.1	2550.0	2744.06	2827.01	3950.0	4132.72	5100.0	5294.03	5377.01	6500.0	6681.68	7650.0	7927.01	7844.02	7002.86	4454.49	1910.5	680.07	5724.57	5762.32	6233.79	6550.55	7612.79	8100.62	9489.68	10066.54	10111.39	10149.66	9731.01	8165.66	8221.07	7869.24	6642.34	6720.21	6493.27	5879.49	5978.43	5950.21	6001.87	6060.12	6070.63	6071.29	6579.51	6709.14	6775.32	6804.08	7972.61	8142.79	8243.94	8290.69	9840.73	10150.12	10030.08	10206.89	10522.42	9656.15	8690.87	7994.76	7303.85	6899.0	6645.77	6654.42	6973.56	6875.05	7008.21	7324.02	7912.3	8545.25	9439.23	10266.75	10681.23	10601.59	10471.15	9662.94	8953.4	8882.11	8782.51	8168.54	7696.96	7641.66	7591.11	7285.77	7164.36	7134.64	7150.0	7241.89	7364.16	7378.69	7469.03	7591.61	8387.31	8592.15	9895.07	10150.0	12874.25	12893.3	13108.62	13264.33	13817.75	14094.43	14934.18	15309.09	15394.92	15467.3	15289.29	15195.39	14193.0	14276.13	14159.27	14075.95	13374.75	13467.85	13424.32	13355.52	13012.75	13113.48	13150.86	13100.1	13204.64	13209.47	13206.52	13514.81	13547.79	13559.03	14280.84	14338.76	14362.7	15513.3	15435.03	15547.74	
7916.03	6769.1	5374.59	4231.83	2848.5	1732.36	588.78	1048.22	1484.8	414.56	1129.8	2265.87	3654.21	4806.4	6199.6	7353.49	1427.03	1254.95	277.15		87.28	1123.04	1310.61	2273.02	2467.15	2550.0	3673.01	3855.58	4823.01	5017.07	5100.0	6223.01	6404.55	7373.01	7650.0	7567.05	6725.71	4177.37	1634.2	946.47	5726.2	5729.76	6120.95	6412.7	7426.16	7900.66	9264.69	9834.78	9881.42	9921.21	9507.7	7968.24	8025.8	7683.85	6507.55	6587.97	6379.01	5848.82	5949.32	5945.34	5992.35	6041.44	6045.11	6042.35	6462.43	6585.88	6647.05	6673.25	7786.07	7953.21	8051.58	8096.89	9617.05	9923.6	9805.02	9979.58	10302.91	9450.24	8507.21	7835.47	7183.33	6818.16	6620.65	6677.2	7016.93	6872.64	6950.48	7224.64	7770.84	8376.32	9244.88	10056.59	10471.15	10392.14	10264.26	9472.04	8782.51	8712.49	8617.15	8030.24	7591.11	7538.12	7494.02	7228.76	7150.0	7123.48	7146.37	7282.18	7396.87	7399.3	7406.52	7518.27	8246.47	8444.18	9703.46	9954.35	12869.98	12873.79	13050.41	13191.93	13711.12	13975.86	14787.88	15153.45	15240.63	15314.16	15142.04	15049.09	14075.77	14160.03	14050.5	13968.55	13303.49	13397.56	13362.52	13295.51	12993.97	13095.32	13141.61	13092.97	13191.2	13192.88	13188.37	13449.26	13479.32	13489.08	14169.07	14224.51	14247.2	15361.86	15285.52	15395.29	
7997.09	6849.79	5454.61	4310.92	2925.27	1803.72	605.48	963.23	1398.2	337.65	1204.18	2345.12	3734.99	4887.76	6281.34	7435.44	1344.12	1176.06	194.83	87.28		1206.13	1396.14	2356.07	2550.0	2633.14	3756.04	3939.58	4906.03	5100.0	5183.07	6306.03	6488.18	7456.02	7733.05	7650.0	6809.49	4261.58	1719.87	871.7	5748.58	5762.37	6176.26	6474.63	7500.08	7977.57	9346.72	9918.04	9964.37	10003.89	9589.42	8044.61	8101.69	7757.51	6568.7	6648.47	6434.74	5880.89	5980.96	5969.74	6018.16	6070.0	6075.71	6073.96	6518.92	6644.02	6706.52	6733.39	7859.99	8027.84	8126.84	8172.47	9698.84	10005.93	9887.08	10062.05	10383.92	9528.48	8580.51	7902.94	7240.83	6864.82	6651.24	6693.3	7026.65	6896.48	6990.63	7276.47	7833.83	8446.16	9320.63	10135.74	10550.29	10471.15	10342.73	9547.03	8852.84	8782.51	8686.14	8092.45	7644.74	7591.11	7545.26	7268.75	7177.48	7150.0	7170.62	7292.91	7409.99	7416.18	7448.1	7562.93	8309.35	8508.88	9778.62	10030.41	12894.93	12903.3	13091.19	13236.73	13765.33	14033.25	14852.42	15220.31	15307.16	15380.41	15206.82	15113.63	14132.81	14216.77	14105.3	14022.98	13347.97	13441.78	13404.34	13336.82	13023.27	13124.44	13168.07	13118.79	13218.92	13221.54	13217.49	13492.14	13523.03	13533.21	14224.66	14280.77	14303.79	15427.68	15350.87	15461.37	
6795.31	5649.45	4257.49	3119.5	1755.35	742.46	1020.42	2091.95	2594.83	1451.29	278.62	1158.12	2535.18	3685.27	5077.56	6231.07	2550.0	2374.74	1400.0	1123.04	1206.13		234.31	1150.0	1344.12	1427.03	2550.0	2734.12	3700.0	3894.04	3977.01	5100.0	5282.13	6250.0	6527.01	6444.03	5603.57	3056.55	538.52	2059.73	5912.49	5779.79	5822.97	5997.61	6772.1	7179.25	8415.51	8950.8	9005.88	9052.85	8665.59	7258.35	7325.6	7033.14	6104.61	6195.13	6069.8	5903.73	6008.33	6101.23	6128.83	6140.44	6116.58	6100.05	6139.22	6233.18	6270.96	6285.34	7128.99	7280.45	7364.95	7403.08	8772.68	9064.49	8953.35	9116.5	9475.82	8690.87	7857.56	7303.85	6833.47	6645.77	6682.53	6927.57	7341.29	7021.13	6873.07	6966.44	7320.42	7795.59	8540.67	9274.49	9687.78	9612.0	9496.58	8782.51	8189.49	8125.8	8050.62	7591.11	7299.84	7257.53	7241.89	7150.0	7246.54	7233.25	7285.77	7591.11	7675.08	7630.53	7302.22	7366.99	7793.77	7957.7	9009.35	9240.27	12958.91	12901.12	12918.31	13000.16	13373.0	13585.82	14275.73	14599.65	14692.48	14770.78	14624.72	14536.16	13691.12	13779.92	13702.01	13626.17	13116.0	13213.69	13214.1	13154.85	13023.72	13127.14	13209.28	13169.38	13241.7	13230.65	13219.77	13284.95	13302.73	13306.29	13807.34	13852.08	13869.29	14825.74	14758.05	14854.71	
6629.45	5486.68	4100.93	2972.65	1640.32	758.06	1252.46	2306.0	2792.84	1660.32	475.85	1036.17	2378.64	3520.75	4908.61	6059.92	2734.12	2550.0	1587.1	1310.61	1396.14	234.31		981.53	1176.06	1254.95	2374.74	2550.0	3523.19	3717.8	3799.62	4922.29	5100.0	6071.85	6348.57	6266.25	5420.23	2870.44	323.88	2230.56	5816.22	5658.66	5644.45	5802.39	6549.52	6951.26	8181.54	8716.5	8771.59	8818.6	8431.75	7031.11	7099.02	6810.65	5910.77	6002.45	5889.01	5782.99	5887.93	5998.41	6022.24	6026.85	5998.03	5979.07	5956.25	6045.86	6080.37	6093.13	6905.9	7055.98	7139.36	7176.93	8538.79	8830.34	8719.31	8882.3	9242.28	8460.12	7634.63	7092.72	6645.35	6484.18	6560.38	6840.15	7267.48	6913.87	6726.28	6791.07	7118.59	7578.96	8313.29	9042.55	9455.71	9380.09	9265.25	8556.07	7971.4	7908.36	7835.2	7390.32	7119.07	7078.36	7066.89	7002.31	7129.09	7118.24	7176.1	7513.51	7591.11	7537.43	7150.0	7207.11	7591.11	7750.93	8782.51	9012.01	12831.96	12763.55	12755.02	12827.92	13180.55	13386.86	14063.01	14382.81	14476.15	14554.88	14411.4	14323.3	13492.77	13582.08	13508.1	13433.07	12944.32	13042.48	13048.16	12990.11	12886.47	12990.17	13078.41	13040.07	13107.84	13094.61	13082.66	13116.59	13132.53	13135.18	13611.74	13655.14	13671.68	14610.52	14543.69	14639.06	
5649.45	4505.69	3119.5	1995.31	742.46	816.24	2091.95	3218.11	3740.27	2589.64	1212.08	276.13	1397.72	2539.93	3929.77	5082.45	3700.0	3523.19	2550.0	2273.02	2356.07	1150.0	981.53		194.83	277.15	1400.0	1587.1	2550.0	2744.06	2827.01	3950.0	4132.72	5100.0	5377.01	5294.03	4454.49	1910.5	680.07	3206.24	6299.71	6041.86	5724.57	5762.32	6233.79	6550.55	7612.79	8100.62	8165.66	8221.07	7869.24	6642.34	6720.21	6493.27	5879.49	5978.43	5950.21	6166.13	6271.12	6453.87	6462.2	6437.58	6387.88	6358.5	6001.87	6060.12	6070.63	6071.29	6579.51	6709.14	6775.32	6804.08	7972.61	8243.94	8142.79	8290.69	8690.87	7994.76	7303.85	6899.0	6645.77	6654.42	6927.57	7346.51	7819.91	7341.41	6973.56	6875.05	7008.21	7324.02	7912.3	8545.25	8953.4	8882.11	8782.51	8168.54	7696.96	7641.66	7591.11	7285.77	7164.36	7134.64	7150.0	7241.89	7511.18	7511.07	7591.11	8050.62	8104.34	8016.39	7364.16	7378.69	7469.03	7591.61	8387.31	8592.15	13140.09	13020.64	12874.25	12893.3	13108.62	13264.33	13817.75	14094.43	14193.0	14276.13	14159.27	14075.95	13374.75	13467.85	13424.32	13355.52	13012.75	13113.48	13150.86	13100.1	13144.74	13249.48	13367.22	13336.42	13382.08	13358.24	13341.0	13204.64	13209.47	13206.52	13514.81	13547.79	13559.03	14338.76	14280.84	14362.7	
5454.61	4310.92	2925.27	1803.72	605.48	963.23	2276.18	3406.94	3932.54	2780.9	1398.2	337.65	1204.18	2345.12	3734.99	4887.76	3894.04	3717.8	2744.06	2467.15	2550.0	1344.12	1176.06	194.83		87.28	1206.13	1396.14	2356.07	2550.0	2633.14	3756.04	3939.58	4906.03	5183.07	5100.0	4261.58	1719.87	871.7	3400.99	6399.31	6123.23	5748.58	5762.37	6176.26	6474.63	7500.08	7977.57	8044.61	8101.69	7757.51	6568.7	6648.47	6434.74	5880.89	5980.96	5969.74	6247.16	6351.89	6547.87	6553.26	6523.18	6469.63	6438.35	6018.16	6070.0	6075.71	6073.96	6518.92	6644.02	6706.52	6733.39	7859.99	8126.84	8027.84	8172.47	8580.51	7902.94	7240.83	6864.82	6651.24	6693.3	7003.81	7448.46	7929.92	7428.38	7026.65	6896.48	6990.63	7276.47	7833.83	8446.16	8852.84	8782.51	8686.14	8092.45	7644.74	7591.11	7545.26	7268.75	7177.48	7150.0	7170.62	7292.91	7589.16	7591.11	7675.27	8157.42	8206.52	8112.13	7409.99	7416.18	7448.1	7562.93	8309.35	8508.88	13197.89	13068.45	12894.93	12903.3	13091.19	13236.73	13765.33	14033.25	14132.81	14216.77	14105.3	14022.98	13347.97	13441.78	13404.34	13336.82	13023.27	13124.44	13168.07	13118.79	13192.71	13297.58	13421.07	13391.77	13433.05	13407.13	13388.86	13218.92	13221.54	13217.49	13492.14	13523.03	13533.21	14280.77	14224.66	14303.79	
5374.59	4231.83	2848.5	1732.36	588.78	1048.22	2363.13	3493.06	4017.19	2866.11	1484.8	414.56	1129.8	2265.87	3654.21	4806.4	3977.01	3799.62	2827.01	2550.0	2633.14	1427.03	1254.95	277.15	87.28		1123.04	1310.61	2273.02	2467.15	2550.0	3673.01	3855.58	4823.01	5100.0	5017.07	4177.37	1634.2	946.47	3482.24	6412.31	6127.2	5726.2	5729.76	6120.95	6412.7	7426.16	7900.66	7968.24	8025.8	7683.85	6507.55	6587.97	6379.01	5848.82	5949.32	5945.34	6250.92	6355.5	6557.99	6561.89	6529.1	6473.69	6441.48	5992.35	6041.44	6045.11	6042.35	6462.43	6585.88	6647.05	6673.25	7786.07	8051.58	7953.21	8096.89	8507.21	7835.47	7183.33	6818.16	6620.65	6677.2	7005.05	7462.42	7947.99	7434.77	7016.93	6872.64	6950.48	7224.64	7770.84	8376.32	8782.51	8712.49	8617.15	8030.24	7591.11	7538.12	7494.02	7228.76	7150.0	7123.48	7146.37	7282.18	7591.11	7594.06	7680.22	8173.76	8220.46	8122.8	7396.87	7399.3	7406.52	7518.27	8246.47	8444.18	13189.57	13055.53	12869.98	12873.79	13050.41	13191.93	13711.12	13975.86	14075.77	14160.03	14050.5	13968.55	13303.49	13397.56	13362.52	13295.51	12993.97	13095.32	13141.61	13092.97	13179.85	13284.78	13410.9	13382.3	13421.55	13394.68	13375.94	13191.2	13192.88	13188.37	13449.26	13479.32	13489.08	14224.51	14169.07	14247.2	
4257.49	3119.5	1755.35	742.46	1020.42	2091.95	3465.0	4605.02	5137.47	3984.5	2594.83	1451.29	278.62	1158.12	2535.18	3685.27	5100.0	4922.29	3950.0	3673.01	3756.04	2550.0	2374.74	1400.0	1206.13	1123.04		234.31	1150.0	1344.12	1427.03	2550.0	2734.12	3700.0	3977.01	3894.04	3056.55	538.52	2059.73	4604.35	7000.94	6621.61	5912.49	5779.79	5822.97	5997.61	6772.1	7179.25	7258.35	7325.6	7033.14	6104.61	6195.13	6069.8	5903.73	6008.33	6101.23	6741.42	6842.9	7114.25	7102.11	7040.06	6964.55	6922.47	6128.83	6140.44	6116.58	6100.05	6139.22	6233.18	6270.96	6285.34	7128.99	7364.95	7280.45	7403.08	7857.56	7303.85	6833.47	6645.77	6682.53	6927.57	7457.97	8051.16	8576.42	7941.43	7341.29	7021.13	6873.07	6966.44	7320.42	7795.59	8189.49	8125.8	8050.62	7591.11	7299.84	7257.53	7241.89	7150.0	7246.54	7233.25	7285.77	7591.11	8046.25	8060.58	8168.54	8782.51	8803.2	8670.78	7675.08	7630.53	7302.22	7366.99	7793.77	7957.7	13490.32	13299.57	12958.91	12901.12	12918.31	13000.16	13373.0	13585.82	13691.12	13779.92	13702.01	13626.17	13116.0	13213.69	13214.1	13154.85	13023.72	13127.14	13209.28	13169.38	13424.23	13529.49	13688.04	13668.21	13682.11	13643.41	13618.82	13241.7	13230.65	13219.77	13284.95	13302.73	13306.29	13852.08	13807.34	13869.29	
4100.93	2972.65	1640.32	758.06	1252.46	2306.0	3667.65	4802.67	5327.14	4176.68	2792.84	1660.32	475.85	1036.17	2378.64	3520.75	5282.13	5100.0	4132.72	3855.58	3939.58	2734.12	2550.0	1587.1	1396.14	1310.61	234.31		981.53	1176.06	1254.95	2374.74	2550.0	3523.19	3799.62	3717.8	2870.44	323.88	2230.56	4780.26	6985.84	6586.2	5816.22	5658.66	5644.45	5802.39	6549.52	6951.26	7031.11	7099.02	6810.65	5910.77	6002.45	5889.01	5782.99	5887.93	5998.41	6704.75	6805.22	7091.29	7075.51	7007.03	6927.26	6883.11	6022.24	6026.85	5998.03	5979.07	5956.25	6045.86	6080.37	6093.13	6905.9	7139.36	7055.98	7176.93	7634.63	7092.72	6645.35	6484.18	6560.38	6840.15	7410.91	8033.41	8567.08	7905.04	7267.48	6913.87	6726.28	6791.07	7118.59	7578.96	7971.4	7908.36	7835.2	7390.32	7119.07	7078.36	7066.89	7002.31	7129.09	7118.24	7176.1	7513.51	7998.23	8015.01	8127.54	8768.03	8782.51	8642.25	7591.11	7537.43	7150.0	7207.11	7591.11	7750.93	13402.71	13200.98	12831.96	12763.55	12755.02	12827.92	13180.55	13386.86	13492.77	13582.08	13508.1	13433.07	12944.32	13042.48	13048.16	12990.11	12886.47	12990.17	13078.41	13040.07	13325.61	13430.85	13595.6	13577.51	13586.42	13545.46	13519.76	13107.84	13094.61	13082.66	13116.59	13132.53	13135.18	13655.14	13611.74	13671.68	
3119.5	1995.31	742.46	816.24	2091.95	3218.11	4605.02	5749.02	6286.11	5132.37	3740.27	2589.64	1212.08	276.13	1397.72	2539.93	6250.0	6071.85	5100.0	4823.01	4906.03	3700.0	3523.19	2550.0	2356.07	2273.02	1150.0	981.53		194.83	277.15	1400.0	1587.1	2550.0	2827.01	2744.06	1910.5	680.07	3206.24	5753.48	7720.55	7266.96	6299.71	6041.86	5724.57	5762.32	6233.79	6550.55	6642.34	6720.21	6493.27	5879.49	5978.43	5950.21	6166.13	6271.12	6453.87	7380.98	7477.78	7804.17	7778.34	7691.88	7600.16	7550.2	6462.2	6437.58	6387.88	6358.5	6001.87	6060.12	6070.63	6071.29	6579.51	6775.32	6709.14	6804.08	7303.85	6899.0	6645.77	6654.42	6927.57	7346.51	8051.16	8755.93	9310.02	8575.04	7819.91	7341.41	6973.56	6875.05	7008.21	7324.02	7696.96	7641.66	7591.11	7285.77	7164.36	7134.64	7150.0	7241.89	7511.18	7511.07	7591.11	8050.62	8632.07	8656.46	8782.51	9496.58	9493.94	9331.93	8104.34	8016.39	7364.16	7378.69	7469.03	7591.61	13877.41	13632.38	13140.09	13020.64	12874.25	12893.3	13108.62	13264.33	13374.75	13467.85	13424.32	13355.52	13012.75	13113.48	13150.86	13100.1	13144.74	13249.48	13367.22	13336.42	13756.53	13861.42	14050.8	14039.68	14028.63	13978.56	13948.38	13382.08	13358.24	13341.0	13204.64	13209.47	13206.52	13547.79	13514.81	13559.03	
2925.27	1803.72	605.48	963.23	2276.18	3406.94	4795.87	5940.67	6479.18	5325.21	3932.54	2780.9	1398.2	337.65	1204.18	2345.12	6444.03	6266.25	5294.03	5017.07	5100.0	3894.04	3717.8	2744.06	2550.0	2467.15	1344.12	1176.06	194.83		87.28	1206.13	1396.14	2356.07	2633.14	2550.0	1719.87	871.7	3400.99	5948.0	7865.19	7401.9	6399.31	6123.23	5748.58	5762.37	6176.26	6474.63	6568.7	6648.47	6434.74	5880.89	5980.96	5969.74	6247.16	6351.89	6547.87	7514.93	7610.93	7944.59	7916.88	7827.12	7733.24	7682.24	6553.26	6523.18	6469.63	6438.35	6018.16	6070.0	6075.71	6073.96	6518.92	6706.52	6644.02	6733.39	7240.83	6864.82	6651.24	6693.3	7003.81	7448.46	8177.58	8897.42	9455.08	8706.62	7929.92	7428.38	7026.65	6896.48	6990.63	7276.47	7644.74	7591.11	7545.26	7268.75	7177.48	7150.0	7170.62	7292.91	7589.16	7591.11	7675.27	8157.42	8756.69	8782.51	8911.04	9638.74	9632.8	9466.71	8206.52	8112.13	7409.99	7416.18	7448.1	7562.93	13967.62	13714.17	13197.89	13068.45	12894.93	12903.3	13091.19	13236.73	13347.97	13441.78	13404.34	13336.82	13023.27	13124.44	13168.07	13118.79	13192.71	13297.58	13421.07	13391.77	13838.16	13942.94	14137.08	14127.33	14112.36	14060.51	14029.47	13433.05	13407.13	13388.86	13218.92	13221.54	13217.49	13523.03	13492.14	13533.21	
2848.5	1732.36	588.78	1048.22	2363.13	3493.06	4881.3	6025.71	6563.23	5409.46	4017.19	2866.11	1484.8	414.56	1129.8	2265.87	6527.01	6348.57	5377.01	5100.0	5183.07	3977.01	3799.62	2827.01	2633.14	2550.0	1427.03	1254.95	277.15	87.28		1123.04	1310.61	2273.02	2550.0	2467.15	1634.2	946.47	3482.24	6030.03	7902.59	7433.7	6412.31	6127.2	5726.2	5729.76	6120.95	6412.7	6507.55	6587.97	6379.01	5848.82	5949.32	5945.34	6250.92	6355.5	6557.99	7546.15	7641.69	7979.5	7950.7	7859.03	7763.94	7712.36	6561.89	6529.1	6473.69	6441.48	5992.35	6041.44	6045.11	6042.35	6462.43	6647.05	6585.88	6673.25	7183.33	6818.16	6620.65	6677.2	7005.05	7462.42	8204.47	8932.83	9492.56	8736.34	7947.99	7434.77	7016.93	6872.64	6950.48	7224.64	7591.11	7538.12	7494.02	7228.76	7150.0	7123.48	7146.37	7282.18	7591.11	7594.06	7680.22	8173.76	8782.51	8809.12	8939.02	9674.48	9666.6	9498.16	8220.46	8122.8	7396.87	7399.3	7406.52	7518.27	13974.91	13717.29	13189.57	13055.53	12869.98	12873.79	13050.41	13191.93	13303.49	13397.56	13362.52	13295.51	12993.97	13095.32	13141.61	13092.97	13179.85	13284.78	13410.9	13382.3	13841.2	13945.91	14142.4	14133.34	14116.42	14063.7	14032.23	13421.55	13394.68	13375.94	13191.2	13192.88	13188.37	13479.32	13449.26	13489.08	
1755.35	742.46	1020.42	2091.95	3465.0	4605.02	5998.02	7144.32	7684.99	6530.79	5137.47	3984.5	2594.83	1451.29	278.62	1158.12	7650.0	7471.51	6500.0	6223.01	6306.03	5100.0	4922.29	3950.0	3756.04	3673.01	2550.0	2374.74	1400.0	1206.13	1123.04		234.31	1150.0	1427.03	1344.12	538.52	2059.73	4604.35	7152.8	8722.03	8203.07	7000.94	6621.61	5912.49	5779.79	5822.97	5997.61	6104.61	6195.13	6069.8	5903.73	6008.33	6101.23	6741.42	6842.9	7114.25	8309.3	8399.74	8775.25	8736.27	8626.99	8520.71	8463.78	7102.11	7040.06	6964.55	6922.47	6128.83	6140.44	6116.58	6100.05	6139.22	6270.96	6233.18	6285.34	6833.47	6645.77	6682.53	6927.57	7457.97	8051.16	8921.39	9729.14	10306.33	9478.46	8576.42	7941.43	7341.29	7021.13	6873.07	6966.44	7299.84	7257.53	7241.89	7150.0	7246.54	7233.25	7285.77	7591.11	8046.25	8060.58	8168.54	8782.51	9485.62	9520.03	9662.94	10471.15	10444.66	10254.02	8803.2	8670.78	7675.08	7630.53	7302.22	7366.99	14458.54	14153.56	13490.32	13299.57	12958.91	12901.12	12918.31	13000.16	13116.0	13213.69	13214.1	13154.85	13023.72	13127.14	13209.28	13169.38	13424.23	13529.49	13688.04	13668.21	14276.12	14379.76	14602.91	14601.8	14562.37	14499.66	14463.31	13682.11	13643.41	13618.82	13241.7	13230.65	13219.77	13302.73	13284.95	13306.29	
1640.32	758.06	1252.46	2306.0	3667.65	4802.67	6191.9	7336.12	7871.59	6718.46	5327.14	4176.68	2792.84	1660.32	475.85	1036.17	7831.44	7650.0	6681.68	6404.55	6488.18	5282.13	5100.0	4132.72	3939.58	3855.58	2734.12	2550.0	1587.1	1396.14	1310.61	234.31		981.53	1254.95	1176.06	323.88	2230.56	4780.26	7330.17	8762.45	8230.48	6985.84	6586.2	5816.22	5658.66	5644.45	5802.39	5910.77	6002.45	5889.01	5782.99	5887.93	5998.41	6704.75	6805.22	7091.29	8334.83	8423.73	8808.91	8767.18	8653.26	8544.14	8485.89	7075.51	7007.03	6927.26	6883.11	6022.24	6026.85	5998.03	5979.07	5956.25	6080.37	6045.86	6093.13	6645.35	6484.18	6560.38	6840.15	7410.91	8033.41	8933.62	9761.59	10343.03	9496.45	8567.08	7905.04	7267.48	6913.87	6726.28	6791.07	7119.07	7078.36	7066.89	7002.31	7129.09	7118.24	7176.1	7513.51	7998.23	8015.01	8127.54	8768.03	9493.39	9529.77	9675.87	10502.8	10471.15	10274.67	8782.51	8642.25	7591.11	7537.43	7150.0	7207.11	14408.72	14093.57	13402.71	13200.98	12831.96	12763.55	12755.02	12827.92	12944.32	13042.48	13048.16	12990.11	12886.47	12990.17	13078.41	13040.07	13325.61	13430.85	13595.6	13577.51	14215.75	14319.08	14547.88	14548.52	14504.19	14439.35	14401.98	13586.42	13545.46	13519.76	13107.84	13094.61	13082.66	13132.53	13116.59	13135.18	
742.46	816.24	2091.95	3218.11	4605.02	5749.02	7144.32	8291.64	8834.34	7679.93	6286.11	5132.37	3740.27	2589.64	1212.08	276.13	8800.0	8621.31	7650.0	7373.01	7456.02	6250.0	6071.85	5100.0	4906.03	4823.01	3700.0	3523.19	2550.0	2356.07	2273.02	1150.0	981.53		277.15	194.83	680.07	3206.24	5753.48	8302.41	9619.38	9061.92	7720.55	7266.96	6299.71	6041.86	5724.57	5762.32	5879.49	5978.43	5950.21	6166.13	6271.12	6453.87	7380.98	7477.78	7804.17	9161.96	9247.3	9652.07	9604.69	9481.17	9366.16	9305.14	7778.34	7691.88	7600.16	7550.2	6462.2	6437.58	6387.88	6358.5	6001.87	6070.63	6060.12	6071.29	6645.77	6654.42	6927.57	7346.51	8051.16	8755.93	9729.14	10600.29	11189.59	10303.94	9310.02	8575.04	7819.91	7341.41	6973.56	6875.05	7164.36	7134.64	7150.0	7241.89	7511.18	7511.07	7591.11	8050.62	8632.07	8656.46	8782.51	9496.58	10276.79	10317.82	10471.15	11338.54	11295.77	11086.59	9493.94	9331.93	8104.34	8016.39	7364.16	7378.69	15016.93	14668.04	13877.41	13632.38	13140.09	13020.64	12874.25	12893.3	13012.75	13113.48	13150.86	13100.1	13144.74	13249.48	13367.22	13336.42	13756.53	13861.42	14050.8	14039.68	14788.67	14890.74	15138.44	15144.97	15084.1	15012.08	14971.21	14028.63	13978.56	13948.38	13382.08	13358.24	13341.0	13209.47	13204.64	13206.52	
588.78	1048.22	2363.13	3493.06	4881.3	6025.71	7421.24	8568.66	9111.49	7957.07	6563.23	5409.46	4017.19	2866.11	1484.8	414.56	9077.0	8898.12	7927.01	7650.0	7733.05	6527.01	6348.57	5377.01	5183.07	5100.0	3977.01	3799.62	2827.01	2633.14	2550.0	1427.03	1254.95	277.15		87.28	946.47	3482.24	6030.03	8579.13	9838.15	9272.67	7902.59	7433.7	6412.31	6127.2	5726.2	5729.76	5848.82	5949.32	5945.34	6250.92	6355.5	6557.99	7546.15	7641.69	7979.5	9371.22	9455.34	9866.24	9817.02	9690.44	9573.61	9511.74	7950.7	7859.03	7763.94	7712.36	6561.89	6529.1	6473.69	6441.48	5992.35	6045.11	6041.44	6042.35	6620.65	6677.2	7005.05	7462.42	8204.47	8932.83	9927.79	10812.41	11404.03	10506.01	9492.56	8736.34	7947.99	7434.77	7016.93	6872.64	7150.0	7123.48	7146.37	7282.18	7591.11	7594.06	7680.22	8173.76	8782.51	8809.12	8939.02	9674.48	10471.15	10513.63	10669.17	11549.28	11502.84	11289.61	9666.6	9498.16	8220.46	8122.8	7396.87	7399.3	15153.75	14794.82	13974.91	13717.29	13189.57	13055.53	12869.98	12873.79	12993.97	13095.32	13141.61	13092.97	13179.85	13284.78	13410.9	13382.3	13841.2	13945.91	14142.4	14133.34	14914.9	15016.54	15269.83	15278.14	15212.28	15138.12	15096.23	14116.42	14063.7	14032.23	13421.55	13394.68	13375.94	13192.88	13191.2	13188.37	
605.48	963.23	2276.18	3406.94	4795.87	5940.67	7336.54	8484.16	9027.72	7873.2	6479.18	5325.21	3932.54	2780.9	1398.2	337.65	8994.02	8815.6	7844.02	7567.05	7650.0	6444.03	6266.25	5294.03	5100.0	5017.07	3894.04	3717.8	2744.06	2550.0	2467.15	1344.12	1176.06	194.83	87.28		871.7	3400.99	5948.0	8496.8	9786.53	9224.27	7865.19	7401.9	6399.31	6123.23	5748.58	5762.37	5880.89	5980.96	5969.74	6247.16	6351.89	6547.87	7514.93	7610.93	7944.59	9323.42	9408.03	9816.49	9768.01	9642.65	9526.54	9465.0	7916.88	7827.12	7733.24	7682.24	6553.26	6523.18	6469.63	6438.35	6018.16	6075.71	6070.0	6073.96	6651.24	6693.3	7003.81	7448.46	8177.58	8897.42	9884.19	10763.52	11354.23	10461.1	9455.08	8706.62	7929.92	7428.38	7026.65	6896.48	7177.48	7150.0	7170.62	7292.91	7589.16	7591.11	7675.27	8157.42	8756.69	8782.51	8911.04	9638.74	10429.23	10471.15	10625.84	11500.97	11455.99	11244.35	9632.8	9466.71	8206.52	8112.13	7409.99	7416.18	15133.05	14777.6	13967.62	13714.17	13197.89	13068.45	12894.93	12903.3	13023.27	13124.44	13168.07	13118.79	13192.71	13297.58	13421.07	13391.77	13838.16	13942.94	14137.08	14127.33	14897.88	14999.67	15251.03	15258.71	15194.59	15121.17	15079.63	14112.36	14060.51	14029.47	13433.05	13407.13	13388.86	13221.54	13218.92	13217.49	
1380.67	725.43	1554.43	2627.02	3991.4	5126.52	6515.46	7659.39	8193.9	7041.04	5650.17	4500.14	3116.72	1982.74	713.04	785.02	8152.45	7970.16	7002.86	6725.71	6809.49	5603.57	5420.23	4454.49	4261.58	4177.37	3056.55	2870.44	1910.5	1719.87	1634.2	538.52	323.88	680.07	946.47	871.7		2550.0	5100.0	7650.0	8980.82	8435.71	7144.55	6720.6	5868.47	5672.46	5553.23	5673.81	5785.21	5879.39	5792.45	5797.1	5902.34	6040.28	6837.33	6936.35	7240.34	8537.96	8625.15	9020.25	8975.66	8856.92	8744.86	8685.22	7220.11	7143.7	7058.68	7011.99	6058.26	6051.86	6015.19	5992.33	5854.91	5961.96	5934.85	5971.01	6531.56	6425.05	6570.48	6903.35	7529.03	8187.57	9121.75	9971.02	10556.58	9690.52	8730.74	8036.25	7349.51	6947.03	6694.01	6704.2	7020.47	6983.19	6980.33	6967.96	7145.75	7138.84	7205.03	7589.8	8114.28	8134.26	8252.58	8925.39	9676.07	9714.64	9864.2	10710.98	10673.84	10471.15	8932.32	8782.51	7658.13	7591.11	7107.21	7150.0	14517.95	14189.22	13459.58	13241.58	12827.89	12741.65	12686.77	12742.25	12859.7	12958.75	12974.69	12918.98	12865.05	12969.17	13067.71	13031.98	13366.09	13471.25	13645.24	13629.75	14310.84	14413.71	14650.09	14653.07	14602.14	14534.44	14495.68	13631.21	13586.85	13559.49	13092.08	13075.17	13061.38	13050.77	13038.4	13051.62	
3794.9	2675.12	1380.67	725.43	1554.43	2627.02	3991.4	5126.52	5650.17	4500.14	3116.72	1982.74	713.04	785.02	2075.56	3210.33	5603.57	5420.23	4454.49	4177.37	4261.58	3056.55	2870.44	1910.5	1719.87	1634.2	538.52	323.88	680.07	871.7	946.47	2059.73	2230.56	3206.24	3482.24	3400.99	2550.0		2550.0	5100.0	7144.55	6720.6	5868.47	5672.46	5553.23	5673.81	6343.72	6724.01	6807.06	6877.64	6604.92	5785.21	5879.39	5792.45	5797.1	5902.34	6040.28	6837.33	6936.35	7240.34	7220.11	7143.7	7058.68	7011.99	6058.26	6051.86	6015.19	5992.33	5854.91	5934.85	5961.96	5971.01	6697.95	6921.89	6842.88	6957.22	7426.73	6921.8	6531.56	6425.05	6570.48	6903.35	7529.03	8187.57	8730.74	8036.25	7349.51	6947.03	6694.01	6704.2	6972.04	7391.63	7779.28	7718.28	7651.31	7246.03	7020.47	6983.19	6980.33	6967.96	7145.75	7138.84	7205.03	7589.8	8114.28	8134.26	8252.58	8925.39	8932.32	8782.51	7658.13	7591.11	7107.21	7150.0	7441.97	7591.11	13459.58	13241.58	12827.89	12741.65	12686.77	12742.25	13052.14	13243.31	13350.63	13441.12	13376.28	13303.1	12859.7	12958.75	12974.69	12918.98	12865.05	12969.17	13067.71	13031.98	13366.09	13471.25	13645.24	13629.75	13631.21	13586.85	13559.49	13092.08	13075.17	13061.38	13038.4	13050.77	13051.62	13516.29	13476.0	13531.25	
6316.74	5176.03	3794.9	2675.12	1380.67	725.43	1554.43	2627.02	3116.72	1982.74	713.04	785.02	2075.56	3210.33	4594.83	5744.67	3056.55	2870.44	1910.5	1634.2	1719.87	538.52	323.88	680.07	871.7	946.47	2059.73	2230.56	3206.24	3400.99	3482.24	4604.35	4780.26	5753.48	6030.03	5948.0	5100.0	2550.0		2550.0	5868.47	5672.46	5553.23	5673.81	6343.72	6724.01	7915.31	8440.24	8497.55	8546.44	8167.16	6807.06	6877.64	6604.92	5785.21	5879.39	5792.45	5797.1	5902.34	6040.28	6058.26	6051.86	6015.19	5992.33	5854.91	5934.85	5961.96	5971.01	6697.95	6842.88	6921.89	6957.22	8273.45	8560.67	8451.77	8611.5	8980.88	8218.65	7426.73	6921.8	6531.56	6425.05	6570.48	6903.35	7349.51	6947.03	6694.01	6704.2	6972.04	7391.63	8087.88	8793.82	9206.11	9131.47	9020.25	8334.42	7779.28	7718.28	7651.31	7246.03	7020.47	6983.19	6980.33	6967.96	7145.75	7138.84	7205.03	7589.8	7658.13	7591.11	7107.21	7150.0	7441.97	7591.11	8559.11	8782.51	12827.89	12741.65	12686.77	12742.25	13052.14	13243.31	13884.09	14191.92	14286.76	14366.75	14230.69	14143.9	13350.63	13441.12	13376.28	13303.1	12859.7	12958.75	12974.69	12918.98	12865.05	12969.17	13067.71	13031.98	13092.08	13075.17	13061.38	13038.4	13050.77	13051.62	13476.0	13516.29	13531.25	14424.37	14360.01	14451.63	
8854.73	7709.17	6316.74	5176.03	3794.9	2675.12	1380.67	725.43	713.04	785.02	2075.56	3210.33	4594.83	5744.67	7135.96	8288.62	538.52	323.88	680.07	946.47	871.7	2059.73	2230.56	3206.24	3400.99	3482.24	4604.35	4780.26	5753.48	5948.0	6030.03	7152.8	7330.17	8302.41	8579.13	8496.8	7650.0	5100.0	2550.0		5553.23	5673.81	6343.72	6724.01	7915.31	8440.24	9902.85	10500.86	10539.72	10572.91	10138.29	8497.55	8546.44	8167.16	6807.06	6877.64	6604.92	5785.21	5879.39	5792.45	5854.91	5934.85	5961.96	5971.01	6697.95	6842.88	6921.89	6957.22	8273.45	8451.77	8560.67	8611.5	10249.02	10567.05	10442.46	10626.29	10916.1	10009.31	8980.88	8218.65	7426.73	6921.8	6531.56	6425.05	6694.01	6704.2	6972.04	7391.63	8087.88	8793.82	9758.24	10631.62	11045.03	10963.61	10825.55	9971.21	9206.11	9131.47	9020.25	8334.42	7779.28	7718.28	7651.31	7246.03	7020.47	6983.19	6980.33	6967.96	7107.21	7150.0	7441.97	7591.11	8559.11	8782.51	10204.85	10471.15	12686.77	12742.25	13052.14	13243.31	13884.09	14191.92	15105.7	15506.16	15588.1	15657.21	15463.02	15366.6	14286.76	14366.75	14230.69	14143.9	13350.63	13441.12	13376.28	13303.1	12859.7	12958.75	12974.69	12918.98	13038.4	13050.77	13051.62	13476.0	13516.29	13531.25	14360.01	14424.37	14451.63	15698.41	15614.82	15735.62	
10354.3	9462.83	8462.18	7733.51	7000.74	6563.08	6278.31	6272.63	6100.8	5999.26	6173.93	6540.58	7212.49	7910.27	8884.12	9765.78	5822.97	5644.45	5724.57	5726.2	5748.58	5912.49	5816.22	6299.71	6399.31	6412.31	7000.94	6985.84	7720.55	7865.19	7902.59	8722.03	8762.45	9619.38	9838.15	9786.53	8980.82	7144.55	5868.47	5553.23		709.01	2550.0	3259.0	5100.0	5809.0	7650.0	8359.0	8329.94	8306.1	7784.28	5780.35	5757.48	5235.88	3231.42	3211.03	2690.51	690.41	691.33	261.22	359.91	540.4	666.21	729.89	2794.66	2998.77	3147.93	3221.93	5338.14	5540.6	5690.35	5764.89	7885.83	8237.45	8087.57	8312.16	8305.02	7162.89	5776.7	4644.24	3282.09	2199.05	1085.83	1052.49	1589.97	1152.36	1850.84	2848.87	4162.72	5282.91	6651.0	7791.48	8135.56	8049.1	7861.41	6733.72	5643.49	5556.36	5373.66	4275.8	3242.79	3156.44	2992.6	2055.93	1478.98	1434.6	1428.3	1782.2	1809.45	1722.68	2289.69	2562.86	4496.25	4813.92	6942.25	7265.29	7150.0	7189.05	7591.11	7861.35	8782.51	9215.43	10471.15	11002.39	11058.84	11106.75	10828.46	10721.44	9290.99	9355.06	9141.39	9042.61	7959.4	8042.35	7929.66	7848.13	7306.62	7405.84	7429.59	7377.16	7488.41	7498.54	7498.75	8048.41	8105.17	8128.92	9299.6	9389.59	9430.4	11119.35	11008.78	11170.97	
9800.88	8945.48	8004.37	7341.62	6714.75	6386.1	6253.85	6377.3	6271.27	6038.41	6050.67	6295.6	6848.16	7470.73	8377.89	9219.22	5997.61	5802.39	5762.32	5729.76	5762.37	5779.79	5658.66	6041.86	6123.23	6127.2	6621.61	6586.2	7266.96	7401.9	7433.7	8203.07	8230.48	9061.92	9272.67	9224.27	8435.71	6720.6	5672.46	5673.81	709.01		1841.0	2550.0	4391.0	5100.0	6941.0	7650.0	7620.96	7597.27	7075.48	5071.44	5048.93	4527.45	2522.9	2503.95	1984.46	124.66	229.92	619.17	549.97	425.4	346.51	320.41	2089.78	2294.7	2443.31	2516.92	4630.0	4832.74	4982.42	5056.88	7177.16	7528.89	7379.03	7603.57	7600.12	6459.58	5076.87	3950.19	2606.23	1576.96	902.89	1540.98	2140.07	1319.86	1364.4	2216.8	3485.44	4592.54	5953.15	7090.39	7437.95	7351.32	7164.54	6041.73	4959.92	4872.66	4692.64	3613.55	2623.62	2539.42	2390.85	1618.04	1473.42	1469.55	1554.5	2276.7	2241.6	2064.99	1837.79	2061.28	3838.64	4151.94	6252.83	6575.2	7181.09	7150.0	7379.34	7591.11	8387.26	8782.51	9962.07	10471.15	10532.42	10584.42	10321.03	10215.65	8864.1	8933.26	8743.51	8648.4	7695.31	7783.39	7705.79	7631.2	7271.06	7373.21	7437.38	7394.62	7477.17	7473.1	7466.19	7809.79	7854.74	7872.49	8892.83	8975.05	9011.85	10602.42	10496.53	10651.55	
8462.18	7733.51	7000.74	6563.08	6278.31	6272.63	6544.4	6973.01	7023.33	6496.77	6100.8	5999.26	6173.93	6540.58	7212.49	7910.27	6772.1	6549.52	6233.79	6120.95	6176.26	5822.97	5644.45	5724.57	5748.58	5726.2	5912.49	5816.22	6299.71	6399.31	6412.31	7000.94	6985.84	7720.55	7902.59	7865.19	7144.55	5868.47	5553.23	6343.72	2550.0	1841.0		709.01	2550.0	3259.0	5100.0	5809.0	5780.35	5757.48	5235.88	3231.42	3211.03	2690.51	690.41	691.33	261.22	1875.17	1910.53	2429.53	2335.37	2143.93	1995.8	1920.84	359.91	540.4	666.21	729.89	2794.66	2998.77	3147.93	3221.93	5338.14	5690.35	5540.6	5764.89	5776.7	4644.24	3282.09	2199.05	1085.83	1052.49	2142.65	3222.52	3825.62	2746.79	1589.97	1152.36	1850.84	2848.87	4162.72	5282.91	5643.49	5556.36	5373.66	4275.8	3242.79	3156.44	2992.6	2055.93	1478.98	1434.6	1428.3	1782.2	2619.94	2675.46	2851.22	3889.81	3782.92	3517.39	1809.45	1722.68	2289.69	2562.86	4496.25	4813.92	7591.11	7387.08	7150.0	7189.05	7591.11	7861.35	8782.51	9215.43	9290.99	9355.06	9141.39	9042.61	7959.4	8042.35	7929.66	7848.13	7306.62	7405.84	7429.59	7377.16	7511.74	7617.0	7779.67	7762.53	7770.5	7730.95	7706.37	7488.41	7498.54	7498.75	8048.41	8105.17	8128.92	9389.59	9299.6	9430.4	
8004.37	7341.62	6714.75	6386.1	6253.85	6377.3	6792.53	7318.66	7419.72	6804.06	6271.27	6038.41	6050.67	6295.6	6848.16	7470.73	7179.25	6951.26	6550.55	6412.7	6474.63	5997.61	5802.39	5762.32	5762.37	5729.76	5779.79	5658.66	6041.86	6123.23	6127.2	6621.61	6586.2	7266.96	7433.7	7401.9	6720.6	5672.46	5673.81	6724.01	3259.0	2550.0	709.01		1841.0	2550.0	4391.0	5100.0	5071.44	5048.93	4527.45	2522.9	2503.95	1984.46	124.66	229.92	619.17	2582.84	2615.52	3135.87	3040.19	2846.27	2697.29	2622.11	549.97	425.4	346.51	320.41	2089.78	2294.7	2443.31	2516.92	4630.0	4982.42	4832.74	5056.88	5076.87	3950.19	2606.23	1576.96	902.89	1540.98	2800.54	3907.35	4505.91	3402.18	2140.07	1319.86	1364.4	2216.8	3485.44	4592.54	4959.92	4872.66	4692.64	3613.55	2623.62	2539.42	2390.85	1618.04	1473.42	1469.55	1554.5	2276.7	3234.74	3297.8	3481.63	4555.62	4435.89	4157.46	2241.6	2064.99	1837.79	2061.28	3838.64	4151.94	7854.07	7591.11	7181.09	7150.0	7379.34	7591.11	8387.26	8782.51	8864.1	8933.26	8743.51	8648.4	7695.31	7783.39	7705.79	7631.2	7271.06	7373.21	7437.38	7394.62	7715.17	7820.0	8015.91	8008.17	7989.27	7937.41	7906.75	7477.17	7473.1	7466.19	7809.79	7854.74	7872.49	8975.05	8892.83	9011.85	
7000.74	6563.08	6278.31	6272.63	6544.4	6973.01	7697.14	8420.5	8627.84	7837.73	7023.33	6496.77	6100.8	5999.26	6173.93	6540.58	8415.51	8181.54	7612.79	7426.16	7500.08	6772.1	6549.52	6233.79	6176.26	6120.95	5822.97	5644.45	5724.57	5748.58	5726.2	5912.49	5816.22	6299.71	6412.31	6399.31	5868.47	5553.23	6343.72	7915.31	5100.0	4391.0	2550.0	1841.0		709.01	2550.0	3259.0	3231.42	3211.03	2690.51	690.41	691.33	261.22	1875.17	1910.53	2429.53	4422.77	4452.79	4974.14	4876.82	4680.37	4530.74	4455.51	2335.37	2143.93	1995.8	1920.84	359.91	540.4	666.21	729.89	2794.66	3147.93	2998.77	3221.93	3282.09	2199.05	1085.83	1052.49	2142.65	3222.52	4583.43	5715.46	6304.59	5173.66	3825.62	2746.79	1589.97	1152.36	1850.84	2848.87	3242.79	3156.44	2992.6	2055.93	1478.98	1434.6	1428.3	1782.2	2619.94	2675.46	2851.22	3889.81	4954.37	5026.24	5217.65	6331.67	6192.89	5897.58	3782.92	3517.39	1809.45	1722.68	2289.69	2562.86	8782.51	8394.08	7591.11	7387.08	7150.0	7189.05	7591.11	7861.35	7959.4	8042.35	7929.66	7848.13	7306.62	7405.84	7429.59	7377.16	7511.74	7617.0	7779.67	7762.53	8512.98	8613.71	8879.9	8893.61	8814.2	8735.67	8691.95	7770.5	7730.95	7706.37	7488.41	7498.54	7498.75	8105.17	8048.41	8128.92	
6714.75	6386.1	6253.85	6377.3	6792.53	7318.66	8134.57	8914.07	9153.17	8314.63	7419.72	6804.06	6271.27	6038.41	6050.67	6295.6	8950.8	8716.5	8100.62	7900.66	7977.57	7179.25	6951.26	6550.55	6474.63	6412.7	5997.61	5802.39	5762.32	5762.37	5729.76	5779.79	5658.66	6041.86	6127.2	6123.23	5672.46	5673.81	6724.01	8440.24	5809.0	5100.0	3259.0	2550.0	709.01		1841.0	2550.0	2522.9	2503.95	1984.46	124.66	229.92	619.17	2582.84	2615.52	3135.87	5131.43	5160.82	5682.34	5584.63	5387.63	5237.91	5162.68	3040.19	2846.27	2697.29	2622.11	549.97	425.4	346.51	320.41	2089.78	2443.31	2294.7	2516.92	2606.23	1576.96	902.89	1540.98	2800.54	3907.35	5279.76	6416.01	7002.25	5866.23	4505.91	3402.18	2140.07	1319.86	1364.4	2216.8	2623.62	2539.42	2390.85	1618.04	1473.42	1469.55	1554.5	2276.7	3234.74	3297.8	3481.63	4555.62	5635.7	5709.32	5901.87	7023.46	6880.0	6581.02	4435.89	4157.46	2241.6	2064.99	1837.79	2061.28	9209.22	8782.51	7854.07	7591.11	7181.09	7150.0	7379.34	7591.11	7695.31	7783.39	7705.79	7631.2	7271.06	7373.21	7437.38	7394.62	7715.17	7820.0	8015.91	8008.17	8898.56	8996.97	9284.4	9305.16	9206.18	9119.36	9071.64	7989.27	7937.41	7906.75	7477.17	7473.1	7466.19	7854.74	7809.79	7872.49	
6278.31	6272.63	6544.4	6973.01	7697.14	8420.5	9416.37	10304.93	10609.29	9677.65	8627.84	7837.73	7023.33	6496.77	6100.8	5999.26	10430.01	10197.25	9489.68	9264.69	9346.72	8415.51	8181.54	7612.79	7500.08	7426.16	6772.1	6549.52	6233.79	6176.26	6120.95	5822.97	5644.45	5724.57	5726.2	5748.58	5553.23	6343.72	7915.31	9902.85	7650.0	6941.0	5100.0	4391.0	2550.0	1841.0		709.01	690.41	691.33	261.22	1875.17	1910.53	2429.53	4422.77	4452.79	4974.14	6972.12	7000.68	7522.4	7424.13	7226.36	7076.51	7001.32	4876.82	4680.37	4530.74	4455.51	2335.37	2143.93	1995.8	1920.84	359.91	666.21	540.4	729.89	1085.83	1052.49	2142.65	3222.52	4583.43	5715.46	7101.39	8243.39	8824.13	7680.73	6304.59	5173.66	3825.62	2746.79	1589.97	1152.36	1478.98	1434.6	1428.3	1782.2	2619.94	2675.46	2851.22	3889.81	4954.37	5026.24	5217.65	6331.67	7431.86	7508.2	7702.16	8834.84	8683.22	8378.3	6192.89	5897.58	3782.92	3517.39	1809.45	1722.68	10471.15	9967.81	8782.51	8394.08	7591.11	7387.08	7150.0	7189.05	7306.62	7405.84	7429.59	7377.16	7511.74	7617.0	7779.67	7762.53	8512.98	8613.71	8879.9	8893.61	10075.74	10167.5	10497.0	10532.84	10392.52	10288.89	10233.13	8814.2	8735.67	8691.95	7770.5	7730.95	7706.37	7498.54	7488.41	7498.75	
6253.85	6377.3	6792.53	7318.66	8134.57	8914.07	9960.37	10879.5	11203.29	10245.77	9153.17	8314.63	7419.72	6804.06	6271.27	6038.41	11031.64	10799.98	10066.54	9834.78	9918.04	8950.8	8716.5	8100.62	7977.57	7900.66	7179.25	6951.26	6550.55	6474.63	6412.7	5997.61	5802.39	5762.32	5729.76	5762.37	5673.81	6724.01	8440.24	10500.86	8359.0	7650.0	5809.0	5100.0	3259.0	2550.0	709.01		124.66	229.92	619.17	2582.84	2615.52	3135.87	5131.43	5160.82	5682.34	7680.95	7709.23	8230.99	8132.55	7934.54	7784.66	7709.48	5584.63	5387.63	5237.91	5162.68	3040.19	2846.27	2697.29	2622.11	549.97	346.51	425.4	320.41	902.89	1540.98	2800.54	3907.35	5279.76	6416.01	7804.72	8948.07	9527.06	8381.85	7002.25	5866.23	4505.91	3402.18	2140.07	1319.86	1473.42	1469.55	1554.5	2276.7	3234.74	3297.8	3481.63	4555.62	5635.7	5709.32	5901.87	7023.46	8127.96	8205.02	8399.25	9534.64	9380.65	9074.14	6880.0	6581.02	4435.89	4157.46	2241.6	2064.99	10997.19	10471.15	9209.22	8782.51	7854.07	7591.11	7181.09	7150.0	7271.06	7373.21	7437.38	7394.62	7715.17	7820.0	8015.91	8008.17	8898.56	8996.97	9284.4	9305.16	10575.91	10665.06	11006.84	11047.46	10894.22	10785.55	10727.41	9206.18	9119.36	9071.64	7989.27	7937.41	7906.75	7473.1	7477.17	7466.19	
6374.42	6490.27	6892.61	7406.98	8209.01	8978.21	10013.62	10925.11	11243.45	10293.0	9210.58	8381.89	7500.63	6897.2	6378.81	6155.61	11069.47	10837.44	10111.39	9881.42	9964.37	9005.88	8771.59	8165.66	8044.61	7968.24	7258.35	7031.11	6642.34	6568.7	6507.55	6104.61	5910.77	5879.49	5848.82	5880.89	5785.21	6807.06	8497.55	10539.72	8329.94	7620.96	5780.35	5071.44	3231.42	2522.9	690.41	124.66		105.26	557.23	2550.0	2578.02	3099.65	5100.0	5127.01	5648.9	7650.0	7676.68	8198.62	8099.41	7900.56	7750.61	7675.48	5550.05	5351.78	5201.88	5126.71	3001.8	2805.21	2655.62	2580.38	472.76	223.62	319.23	196.35	779.43	1448.41	2735.38	3851.97	5230.88	6370.44	7761.89	8906.87	9483.45	8336.38	6953.81	5814.24	4447.49	3334.76	2051.79	1200.34	1348.76	1345.1	1431.85	2179.01	3155.75	3220.59	3406.24	4490.59	5577.04	5651.56	5844.64	6970.49	8077.93	8155.55	8349.98	9487.62	9331.5	9023.71	6824.05	6523.04	4366.16	4083.85	2136.36	1952.05	10896.0	10366.83	9096.56	8666.7	7731.56	7467.08	7057.74	7029.06	7150.0	7252.05	7314.73	7271.68	7591.11	7695.93	7892.57	7885.09	8782.51	8880.73	9169.78	9191.13	10471.15	10559.95	10903.31	10944.6	10789.61	10680.3	10621.86	9090.56	9003.13	8955.12	7865.49	7813.39	7782.63	7351.65	7355.18	7345.04	
6476.17	6585.7	6977.32	7481.88	8272.25	9032.76	10058.95	10963.94	11277.66	10333.25	9259.48	8439.13	7569.36	6976.15	6469.74	6254.56	11101.75	10869.43	10149.66	9921.21	10003.89	9052.85	8818.6	8221.07	8101.69	8025.8	7325.6	7099.02	6720.21	6648.47	6587.97	6195.13	6002.45	5978.43	5949.32	5980.96	5879.39	6877.64	8546.44	10572.91	8306.1	7597.27	5757.48	5048.93	3211.03	2503.95	691.33	229.92	105.26		522.0	2526.06	2550.0	3072.0	5075.03	5100.0	5622.0	7624.68	7650.0	8172.0	8072.15	7872.62	7722.63	7647.57	5522.22	5322.92	5172.95	5097.85	2972.4	2773.77	2623.87	2548.7	424.84	122.41	243.07	93.05	675.64	1373.71	2683.04	3807.14	5190.94	6332.97	7726.45	8872.64	9447.1	8298.6	6913.75	5771.45	4399.69	3279.85	1979.79	1100.08	1243.5	1240.02	1328.45	2098.31	3090.84	3157.21	3344.32	4437.07	5528.59	5603.86	5797.34	6926.56	8036.31	8114.4	8308.96	9448.39	9290.46	8981.62	6777.61	6474.94	4308.63	4023.08	2048.8	1857.55	10810.54	10278.72	9001.39	8568.85	7628.05	7362.29	6953.73	6927.23	7048.05	7150.0	7211.36	7168.03	7486.31	7591.11	7788.35	7781.09	8684.46	8782.51	9072.93	9094.78	10382.66	10471.15	10815.86	10857.71	10701.23	10591.38	10532.69	8992.87	8904.92	8856.66	7760.93	7708.62	7677.78	7249.36	7252.4	7243.0	
6492.4	6510.09	6799.36	7233.69	7957.15	8676.19	9664.69	10546.62	10845.73	9921.0	8879.44	8095.14	7284.5	6755.83	6347.32	6225.45	10664.19	10431.15	9731.01	9507.7	9589.42	8665.59	8431.75	7869.24	7757.51	7683.85	7033.14	6810.65	6493.27	6434.74	6379.01	6069.8	5889.01	5950.21	5945.34	5969.74	5792.45	6604.92	8167.16	10138.29	7784.28	7075.48	5235.88	4527.45	2690.51	1984.46	261.22	619.17	557.23	522.0		2004.55	2028.0	2550.0	4553.12	4578.0	5100.0	7102.72	7128.0	7650.0	7550.17	7350.68	7200.69	7125.62	5000.25	4801.04	4651.08	4575.97	2450.51	2252.22	2102.38	2027.18	111.8	460.98	316.23	533.35	825.38	954.59	2182.03	3294.88	4674.0	5814.31	7206.68	8352.32	8927.84	7780.18	6396.94	5257.02	3891.06	2783.21	1537.8	928.04	1230.13	1190.74	1201.04	1697.06	2618.78	2680.66	2863.56	3937.32	5020.74	5095.0	5287.96	6413.27	7520.81	7598.5	7792.95	8930.99	8774.47	8466.55	6267.13	5966.57	3816.73	3538.71	1692.01	1565.25	10415.65	9900.02	8677.85	8273.19	7424.93	7203.19	6925.24	6952.07	7070.27	7170.03	7200.69	7150.0	7327.78	7433.01	7605.43	7591.11	8391.01	8490.87	8765.84	8782.51	10006.34	10096.79	10432.76	10471.15	10324.0	10217.75	10160.77	8694.97	8613.07	8567.74	7591.11	7548.01	7521.71	7263.95	7256.2	7263.0	
6838.38	6510.67	6374.42	6490.27	6892.61	7406.98	8209.01	8978.21	9210.58	8381.89	7500.63	6897.2	6378.81	6155.61	6174.45	6420.02	9005.88	8771.59	8165.66	7968.24	8044.61	7258.35	7031.11	6642.34	6568.7	6507.55	6104.61	5910.77	5879.49	5880.89	5848.82	5903.73	5782.99	6166.13	6250.92	6247.16	5797.1	5785.21	6807.06	8497.55	5780.35	5071.44	3231.42	2522.9	690.41	124.66	1875.17	2582.84	2550.0	2526.06	2004.55		105.26	557.23	2550.0	2578.02	3099.65	5100.0	5127.01	5648.9	5550.05	5351.78	5201.88	5126.71	3001.8	2805.21	2655.62	2580.38	472.76	319.23	223.62	196.35	2107.42	2460.22	2310.76	2534.51	2595.71	1537.24	779.43	1448.41	2735.38	3851.97	5230.88	6370.44	6953.81	5814.24	4447.49	3334.76	2051.79	1200.34	1282.4	2183.12	2585.45	2500.28	2345.83	1528.33	1348.76	1345.1	1431.85	2179.01	3155.75	3220.59	3406.24	4490.59	5577.04	5651.56	5844.64	6970.49	6824.05	6523.04	4366.16	4083.85	2136.36	1952.05	1752.06	1987.01	9096.56	8666.7	7731.56	7467.08	7057.74	7029.06	7269.89	7487.54	7591.11	7678.68	7597.57	7522.3	7150.0	7252.05	7314.73	7271.68	7591.11	7695.93	7892.57	7885.09	8782.51	8880.73	9169.78	9191.13	9090.56	9003.13	8955.12	7865.49	7813.39	7782.63	7355.18	7351.65	7345.04	7749.16	7703.01	7767.54	
6942.88	6615.83	6476.17	6585.7	6977.32	7481.88	8272.25	9032.76	9259.48	8439.13	7569.36	6976.15	6469.74	6254.56	6278.92	6525.13	9052.85	8818.6	8221.07	8025.8	8101.69	7325.6	7099.02	6720.21	6648.47	6587.97	6195.13	6002.45	5978.43	5980.96	5949.32	6008.33	5887.93	6271.12	6355.5	6351.89	5902.34	5879.39	6877.64	8546.44	5757.48	5048.93	3211.03	2503.95	691.33	229.92	1910.53	2615.52	2578.02	2550.0	2028.0	105.26		522.0	2526.06	2550.0	3072.0	5075.03	5100.0	5622.0	5522.22	5322.92	5172.95	5097.85	2972.4	2773.77	2623.87	2548.7	424.84	243.07	122.41	93.05	2128.56	2479.98	2330.1	2554.69	2592.16	1511.58	675.64	1373.71	2683.04	3807.14	5190.94	6332.97	6913.75	5771.45	4399.69	3279.85	1979.79	1100.08	1219.38	2160.55	2558.18	2472.32	2313.03	1457.12	1243.5	1240.02	1328.45	2098.31	3090.84	3157.21	3344.32	4437.07	5528.59	5603.86	5797.34	6926.56	6777.61	6474.94	4308.63	4023.08	2048.8	1857.55	1684.0	1928.93	9001.39	8568.85	7628.05	7362.29	6953.73	6927.23	7178.2	7400.98	7504.0	7591.11	7506.93	7431.08	7048.05	7150.0	7211.36	7168.03	7486.31	7591.11	7788.35	7781.09	8684.46	8782.51	9072.93	9094.78	8992.87	8904.92	8856.66	7760.93	7708.62	7677.78	7252.4	7249.36	7243.0	7660.84	7613.64	7679.77	
7146.77	6741.01	6492.4	6510.09	6799.36	7233.69	7957.15	8676.19	8879.44	8095.14	7284.5	6755.83	6347.32	6225.45	6365.37	6698.97	8665.59	8431.75	7869.24	7683.85	7757.51	7033.14	6810.65	6493.27	6434.74	6379.01	6069.8	5889.01	5950.21	5969.74	5945.34	6101.23	5998.41	6453.87	6557.99	6547.87	6040.28	5792.45	6604.92	8167.16	5235.88	4527.45	2690.51	1984.46	261.22	619.17	2429.53	3135.87	3099.65	3072.0	2550.0	557.23	522.0		2004.55	2028.0	2550.0	4553.12	4578.0	5100.0	5000.25	4801.04	4651.08	4575.97	2450.51	2252.22	2102.38	2027.18	111.8	316.23	460.98	533.35	2650.47	3001.67	2851.75	3076.44	3099.4	1992.8	825.38	954.59	2182.03	3294.88	4674.0	5814.31	6396.94	5257.02	3891.06	2783.21	1537.8	928.04	1610.69	2642.21	3028.76	2941.9	2773.08	1806.24	1230.13	1190.74	1201.04	1697.06	2618.78	2680.66	2863.56	3937.32	5020.74	5095.0	5287.96	6413.27	6267.13	5966.57	3816.73	3538.71	1692.01	1565.25	2040.44	2320.02	8677.85	8273.19	7424.93	7203.19	6925.24	6952.07	7334.39	7601.42	7699.74	7782.93	7672.19	7591.11	7070.27	7170.03	7200.69	7150.0	7327.78	7433.01	7605.43	7591.11	8391.01	8490.87	8765.84	8782.51	8694.97	8613.07	8567.74	7591.11	7548.01	7521.71	7256.2	7263.95	7263.0	7846.18	7790.06	7869.64	
8117.8	7460.5	6838.38	6510.67	6374.42	6490.27	6892.61	7406.98	7500.63	6897.2	6378.81	6155.61	6174.45	6420.02	6968.76	7585.97	7258.35	7031.11	6642.34	6507.55	6568.7	6104.61	5910.77	5879.49	5880.89	5848.82	5903.73	5782.99	6166.13	6247.16	6250.92	6741.42	6704.75	7380.98	7546.15	7514.93	6837.33	5797.1	5785.21	6807.06	3231.42	2522.9	690.41	124.66	1875.17	2582.84	4422.77	5131.43	5100.0	5075.03	4553.12	2550.0	2526.06	2004.55		105.26	557.23	2550.0	2578.02	3099.65	3001.8	2805.21	2655.62	2580.38	472.76	319.23	223.62	196.35	2107.42	2310.76	2460.22	2534.51	4654.45	5006.04	4856.16	5080.74	5086.54	3953.9	2595.71	1537.24	779.43	1448.41	2735.38	3851.97	4447.49	3334.76	2051.79	1200.34	1282.4	2183.12	3476.24	4593.06	4955.29	4868.11	4686.21	3595.62	2585.45	2500.28	2345.83	1528.33	1348.76	1345.1	1431.85	2179.01	3155.75	3220.59	3406.24	4490.59	4366.16	4083.85	2136.36	1952.05	1752.06	1987.01	3818.43	4134.11	7731.56	7467.08	7057.74	7029.06	7269.89	7487.54	8300.35	8701.94	8782.51	8850.82	8657.12	8561.41	7591.11	7678.68	7597.57	7522.3	7150.0	7252.05	7314.73	7271.68	7591.11	7695.93	7892.57	7885.09	7865.49	7813.39	7782.63	7355.18	7351.65	7345.04	7703.01	7749.16	7767.54	8891.41	8807.9	8928.88	
8214.1	7561.22	6942.88	6615.83	6476.17	6585.7	6977.32	7481.88	7569.36	6976.15	6469.74	6254.56	6278.92	6525.13	7070.86	7683.75	7325.6	7099.02	6720.21	6587.97	6648.47	6195.13	6002.45	5978.43	5980.96	5949.32	6008.33	5887.93	6271.12	6351.89	6355.5	6842.9	6805.22	7477.78	7641.69	7610.93	6936.35	5902.34	5879.39	6877.64	3211.03	2503.95	691.33	229.92	1910.53	2615.52	4452.79	5160.82	5127.01	5100.0	4578.0	2578.02	2550.0	2028.0	105.26		522.0	2526.06	2550.0	3072.0	2972.4	2773.77	2623.87	2548.7	424.84	243.07	122.41	93.05	2128.56	2330.1	2479.98	2554.69	4678.26	5028.97	4879.0	5103.85	5097.75	3960.77	2592.16	1511.58	675.64	1373.71	2683.04	3807.14	4399.69	3279.85	1979.79	1100.08	1219.38	2160.55	3472.63	4596.82	4954.52	4867.45	4684.06	3584.48	2558.18	2472.32	2313.03	1457.12	1243.5	1240.02	1328.45	2098.31	3090.84	3157.21	3344.32	4437.07	4308.63	4023.08	2048.8	1857.55	1684.0	1928.93	3805.15	4122.63	7628.05	7362.29	6953.73	6927.23	7178.2	7400.98	8228.23	8635.26	8714.94	8782.51	8585.41	8489.19	7504.0	7591.11	7506.93	7431.08	7048.05	7150.0	7211.36	7168.03	7486.31	7591.11	7788.35	7781.09	7760.93	7708.62	7677.78	7252.4	7249.36	7243.0	7613.64	7660.84	7679.77	8822.06	8737.44	8860.12	
8544.37	7842.59	7146.77	6741.01	6492.4	6510.09	6799.36	7233.69	7284.5	6755.83	6347.32	6225.45	6365.37	6698.97	7331.6	8000.08	7033.14	6810.65	6493.27	6379.01	6434.74	6069.8	5889.01	5950.21	5969.74	5945.34	6101.23	5998.41	6453.87	6547.87	6557.99	7114.25	7091.29	7804.17	7979.5	7944.59	7240.34	6040.28	5792.45	6604.92	2690.51	1984.46	261.22	619.17	2429.53	3135.87	4974.14	5682.34	5648.9	5622.0	5100.0	3099.65	3072.0	2550.0	557.23	522.0		2004.55	2028.0	2550.0	2450.51	2252.22	2102.38	2027.18	111.8	316.23	460.98	533.35	2650.47	2851.75	3001.67	3076.44	5200.24	5550.9	5400.93	5625.79	5615.71	4476.19	3099.4	1992.8	825.38	954.59	2182.03	3294.88	3891.06	2783.21	1537.8	928.04	1610.69	2642.21	3978.55	5109.43	5462.47	5375.56	5190.62	4080.44	3028.76	2941.9	2773.08	1806.24	1230.13	1190.74	1201.04	1697.06	2618.78	2680.66	2863.56	3937.32	3816.73	3538.71	1692.01	1565.25	2040.44	2320.02	4297.55	4617.36	7424.93	7203.19	6925.24	6952.07	7334.39	7601.42	8522.48	8957.5	9032.62	9096.36	8881.44	8782.51	7699.74	7782.93	7672.19	7591.11	7070.27	7170.03	7200.69	7150.0	7327.78	7433.01	7605.43	7591.11	7591.11	7548.01	7521.71	7256.2	7263.95	7263.0	7790.06	7846.18	7869.64	9130.44	9040.05	9171.49	
9901.45	9051.75	8117.8	7460.5	6838.38	6510.67	6374.42	6490.27	6378.81	6155.61	6174.45	6420.02	6968.76	7585.97	8485.77	9321.06	6104.61	5910.77	5879.49	5848.82	5880.89	5903.73	5782.99	6166.13	6247.16	6250.92	6741.42	6704.75	7380.98	7514.93	7546.15	8309.3	8334.83	9161.96	9371.22	9323.42	8537.96	6837.33	5797.1	5785.21	690.41	124.66	1875.17	2582.84	4422.77	5131.43	6972.12	7680.95	7650.0	7624.68	7102.72	5100.0	5075.03	4553.12	2550.0	2526.06	2004.55		105.26	557.23	472.76	319.23	223.62	196.35	2107.42	2310.76	2460.22	2534.51	4654.45	4856.16	5006.04	5080.74	7203.58	7554.67	7404.73	7629.49	7616.63	6473.68	5086.54	3953.9	2595.71	1537.24	779.43	1448.41	2051.79	1200.34	1282.4	2183.12	3476.24	4593.06	5960.62	7101.51	7445.16	7358.71	7171.0	6043.69	4955.29	4868.11	4686.21	3595.62	2585.45	2500.28	2345.83	1528.33	1348.76	1345.1	1431.85	2179.01	2136.36	1952.05	1752.06	1987.01	3818.43	4134.11	6252.69	6575.61	7057.74	7029.06	7269.89	7487.54	8300.35	8701.94	9896.74	10411.02	10471.15	10522.21	10255.41	10149.65	8782.51	8850.82	8657.12	8561.41	7591.11	7678.68	7597.57	7522.3	7150.0	7252.05	7314.73	7271.68	7355.18	7351.65	7345.04	7703.01	7749.16	7767.54	8807.9	8891.41	8928.88	10538.97	10432.01	10588.68	
9987.2	9142.2	8214.1	7561.22	6942.88	6615.83	6476.17	6585.7	6469.74	6254.56	6278.92	6525.13	7070.86	7683.75	8577.55	9407.86	6195.13	6002.45	5978.43	5949.32	5980.96	6008.33	5887.93	6271.12	6351.89	6355.5	6842.9	6805.22	7477.78	7610.93	7641.69	8399.74	8423.73	9247.3	9455.34	9408.03	8625.15	6936.35	5902.34	5879.39	691.33	229.92	1910.53	2615.52	4452.79	5160.82	7000.68	7709.23	7676.68	7650.0	7128.0	5127.01	5100.0	4578.0	2578.02	2550.0	2028.0	105.26		522.0	424.84	243.07	122.41	93.05	2128.56	2330.1	2479.98	2554.69	4678.26	4879.0	5028.97	5103.85	7228.17	7578.65	7428.66	7653.57	7632.82	6488.1	5097.75	3960.77	2592.16	1511.58	675.64	1373.71	1979.79	1100.08	1219.38	2160.55	3472.63	4596.82	5969.63	7113.27	7453.54	7367.28	7178.84	6048.04	4954.52	4867.45	4684.06	3584.48	2558.18	2472.32	2313.03	1457.12	1243.5	1240.02	1328.45	2098.31	2048.8	1857.55	1684.0	1928.93	3805.15	4122.63	6255.2	6578.48	6953.73	6927.23	7178.2	7400.98	8228.23	8635.26	9843.07	10361.75	10420.91	10471.15	10201.45	10095.37	8714.94	8782.51	8585.41	8489.19	7504.0	7591.11	7506.93	7431.08	7048.05	7150.0	7211.36	7168.03	7252.4	7249.36	7243.0	7613.64	7660.84	7679.77	8737.44	8822.06	8860.12	10486.85	10378.98	10537.05	
10389.48	9517.16	8544.37	7842.59	7146.77	6741.01	6492.4	6510.09	6347.32	6225.45	6365.37	6698.97	7331.6	8000.08	8943.82	9804.65	6069.8	5889.01	5950.21	5945.34	5969.74	6101.23	5998.41	6453.87	6547.87	6557.99	7114.25	7091.29	7804.17	7944.59	7979.5	8775.25	8808.91	9652.07	9866.24	9816.49	9020.25	7240.34	6040.28	5792.45	261.22	619.17	2429.53	3135.87	4974.14	5682.34	7522.4	8230.99	8198.62	8172.0	7650.0	5648.9	5622.0	5100.0	3099.65	3072.0	2550.0	557.23	522.0		111.8	316.23	460.98	533.35	2650.47	2851.75	3001.67	3076.44	5200.24	5400.93	5550.9	5625.79	7750.16	8100.62	7950.63	8175.54	8152.99	7007.59	5615.71	4476.19	3099.4	1992.8	825.38	954.59	1537.8	928.04	1610.69	2642.21	3978.55	5109.43	6486.01	7631.27	7969.24	7883.12	7694.15	6560.68	5462.47	5375.56	5190.62	4080.44	3028.76	2941.9	2773.08	1806.24	1230.13	1190.74	1201.04	1697.06	1692.01	1565.25	2040.44	2320.02	4297.55	4617.36	6766.05	7089.61	6925.24	6952.07	7334.39	7601.42	8522.48	8957.5	10221.41	10756.26	10811.83	10859.02	10578.4	10471.15	9032.62	9096.36	8881.44	8782.51	7699.74	7782.93	7672.19	7591.11	7070.27	7170.03	7200.69	7150.0	7256.2	7263.95	7263.0	7790.06	7846.18	7869.64	9040.05	9130.44	9171.49	10870.72	10759.41	10922.74	
10342.93	9478.46	8517.7	7828.23	7150.61	6762.12	6535.77	6570.86	6416.36	6277.44	6394.46	6709.42	7322.13	7976.92	8907.48	9759.67	6139.22	5956.25	6001.87	5992.35	6018.16	6128.83	6022.24	6462.2	6553.26	6561.89	7102.11	7075.51	7778.34	7916.88	7950.7	8736.27	8767.18	9604.69	9817.02	9768.01	8975.66	7220.11	6058.26	5854.91	359.91	549.97	2335.37	3040.19	4876.82	5584.63	7424.13	8132.55	8099.41	8072.15	7550.17	5550.05	5522.22	5000.25	3001.8	2972.4	2450.51	472.76	424.84	111.8		206.16	353.55	427.27	2550.0	2750.45	2900.43	2975.33	5100.0	5300.24	5450.23	5525.18	7650.0	8000.16	7850.16	8075.12	8049.3	6903.35	5510.56	4369.93	2991.03	1881.82	728.87	995.62	1590.92	892.33	1500.18	2531.06	3869.76	5002.12	6380.01	7526.04	7862.89	7776.83	7587.65	6453.29	5353.95	5267.08	5081.83	3970.2	2917.12	2830.24	2661.3	1698.53	1165.94	1132.85	1159.74	1735.66	1715.93	1569.24	1932.59	2210.2	4186.93	4506.94	6658.15	6981.76	6877.88	6894.59	7254.63	7515.03	8423.72	8855.56	10114.02	10647.59	10703.44	10750.88	10471.15	10364.0	8931.2	8995.37	8782.51	8683.89	7614.07	7697.86	7591.11	7510.83	7013.32	7113.53	7150.0	7100.7	7202.78	7208.5	7206.54	7707.3	7762.09	7784.87	8940.36	9030.09	9070.79	10762.9	10651.88	10814.77	
10220.63	9369.43	8429.49	7761.85	7117.32	6761.01	6577.33	6646.9	6509.36	6336.11	6408.69	6688.52	7264.7	7895.01	8802.58	9640.09	6233.18	6045.86	6060.12	6041.44	6070.0	6140.44	6026.85	6437.58	6523.18	6529.1	7040.06	7007.03	7691.88	7827.12	7859.03	8626.99	8653.26	9481.17	9690.44	9642.65	8856.92	7143.7	6051.86	5934.85	540.4	425.4	2143.93	2846.27	4680.37	5387.63	7226.36	7934.54	7900.56	7872.62	7350.68	5351.78	5322.92	4801.04	2805.21	2773.77	2252.22	319.23	243.07	316.23	206.16		150.0	225.08	2350.53	2550.0	2700.0	2775.01	4900.26	5100.0	5250.0	5325.0	7450.17	7800.0	7650.0	7875.0	7846.1	6699.72	5306.25	4164.88	2785.0	1676.68	601.04	1131.92	1737.31	906.23	1310.62	2326.21	3663.64	4796.48	6175.09	7321.63	7657.73	7571.71	7382.41	6247.6	5147.87	5061.01	4875.71	3764.31	2713.93	2627.16	2459.67	1520.69	1111.4	1093.19	1154.34	1860.11	1817.94	1640.12	1753.68	2022.99	3981.32	4301.16	6452.24	6775.88	6837.6	6833.66	7145.43	7390.48	8268.41	8691.63	9933.83	10463.02	10519.84	10568.11	10291.38	10184.55	8768.68	8834.04	8626.7	8528.92	7491.16	7576.32	7478.8	7400.34	6953.42	7054.49	7102.82	7056.38	7150.0	7151.57	7147.54	7591.11	7642.81	7664.03	8782.51	8870.46	8910.24	10581.23	10471.15	10632.61	
10106.25	9263.17	8336.44	7683.18	7061.25	6727.65	6575.05	6670.55	6546.25	6346.75	6386.53	6641.25	7192.17	7806.17	8698.96	9527.39	6270.96	6080.37	6070.63	6045.11	6075.71	6116.58	5998.03	6387.88	6469.63	6473.69	6964.55	6927.26	7600.16	7733.24	7763.94	8520.71	8544.14	9366.16	9573.61	9526.54	8744.86	7058.68	6015.19	5961.96	666.21	346.51	1995.8	2697.29	4530.74	5237.91	7076.51	7784.66	7750.61	7722.63	7200.69	5201.88	5172.95	4651.08	2655.62	2623.87	2102.38	223.62	122.41	460.98	353.55	150.0		75.24	2200.57	2400.0	2550.0	2625.01	4750.26	4950.0	5100.0	5175.0	7300.17	7650.0	7500.0	7725.0	7696.51	6550.29	5157.16	4016.37	2638.42	1536.64	575.54	1263.43	1870.76	977.88	1197.59	2186.61	3517.63	4648.79	6026.46	7172.6	7509.34	7423.28	7234.12	6100.0	5001.5	4914.59	4729.69	3621.12	2577.75	2491.24	2326.48	1421.27	1131.2	1124.44	1208.3	1983.05	1929.61	1735.66	1651.94	1910.5	3839.19	4158.43	6305.15	6628.73	6848.69	6829.2	7102.39	7334.39	8184.64	8599.63	9825.36	10349.82	10407.69	10456.86	10183.32	10076.83	8678.01	8744.49	8542.39	8445.41	7436.43	7522.73	7433.03	7356.12	6949.69	7051.37	7108.62	7064.35	7151.57	7150.0	7144.39	7542.05	7591.11	7611.0	8696.26	8782.51	8821.41	10471.15	10362.07	10521.99	
10045.48	9206.21	8285.79	7639.49	7028.64	6706.29	6569.19	6677.71	6560.11	6347.42	6370.8	6613.04	7151.51	7757.56	8643.27	9467.43	6285.34	6093.13	6071.29	6042.35	6073.96	6100.05	5979.07	6358.5	6438.35	6441.48	6922.47	6883.11	7550.2	7682.24	7712.36	8463.78	8485.89	9305.14	9511.74	9465.0	8685.22	7011.99	5992.33	5971.01	729.89	320.41	1920.84	2622.11	4455.51	5162.68	7001.32	7709.48	7675.48	7647.57	7125.62	5126.71	5097.85	4575.97	2580.38	2548.7	2027.18	196.35	93.05	533.35	427.27	225.08	75.24		2125.46	2325.01	2475.01	2550.0	4675.21	4875.0	5025.0	5100.0	7225.13	7575.0	7425.0	7650.0	7622.18	6476.11	5083.31	3943.04	2566.62	1469.71	583.15	1333.25	1940.94	1024.97	1148.59	2119.68	3446.2	4576.09	5953.0	7098.81	7436.07	7349.97	7160.93	6027.34	4929.75	4842.8	4658.2	3551.6	2512.91	2426.58	2263.59	1379.8	1154.14	1152.78	1246.54	2049.11	1991.12	1790.6	1608.59	1860.45	3770.35	4089.16	6232.86	6556.39	6861.43	6834.21	7087.75	7312.95	8148.5	8559.03	9775.73	10297.56	10356.01	10405.66	10133.9	10027.6	8638.12	8705.21	8505.93	8409.39	7415.68	7502.56	7416.93	7340.83	6955.04	7057.0	7118.7	7075.5	7159.54	7156.39	7150.0	7524.22	7571.92	7591.11	8658.75	8744.08	8782.51	10420.6	10312.08	10471.15	
8517.7	7828.23	7150.61	6762.12	6535.77	6570.86	6877.95	7323.34	7379.37	6841.14	6416.36	6277.44	6394.46	6709.42	7322.13	7976.92	7128.99	6905.9	6579.51	6462.43	6518.92	6139.22	5956.25	6001.87	6018.16	5992.35	6128.83	6022.24	6462.2	6553.26	6561.89	7102.11	7075.51	7778.34	7950.7	7916.88	7220.11	6058.26	5854.91	6697.95	2794.66	2089.78	359.91	549.97	2335.37	3040.19	4876.82	5584.63	5550.05	5522.22	5000.25	3001.8	2972.4	2450.51	472.76	424.84	111.8	2107.42	2128.56	2650.47	2550.0	2350.53	2200.57	2125.46		206.16	353.55	427.27	2550.0	2750.45	2900.43	2975.33	5100.0	5450.23	5300.24	5525.18	5510.56	4369.93	2991.03	1881.82	728.87	995.62	2263.02	3383.23	3977.0	2862.04	1590.92	892.33	1500.18	2531.06	3869.76	5002.12	5353.95	5267.08	5081.83	3970.2	2917.12	2830.24	2661.3	1698.53	1165.94	1132.85	1159.74	1735.66	2685.93	2749.81	2934.71	4018.08	3893.44	3611.79	1715.93	1569.24	1932.59	2210.2	4186.93	4506.94	7415.24	7183.32	6877.88	6894.59	7254.63	7515.03	8423.72	8855.56	8931.2	8995.37	8782.51	8683.89	7614.07	7697.86	7591.11	7510.83	7013.32	7113.53	7150.0	7100.7	7307.83	7413.0	7591.11	7578.42	7573.8	7528.61	7501.28	7202.78	7208.5	7206.54	7707.3	7762.09	7784.87	9030.09	8940.36	9070.79	
8429.49	7761.85	7117.32	6761.01	6577.33	6646.9	6990.8	7460.31	7528.43	6968.59	6509.36	6336.11	6408.69	6688.52	7264.7	7895.01	7280.45	7055.98	6709.14	6585.88	6644.02	6233.18	6045.86	6060.12	6070.0	6041.44	6140.44	6026.85	6437.58	6523.18	6529.1	7040.06	7007.03	7691.88	7859.03	7827.12	7143.7	6051.86	5934.85	6842.88	2998.77	2294.7	540.4	425.4	2143.93	2846.27	4680.37	5387.63	5351.78	5322.92	4801.04	2805.21	2773.77	2252.22	319.23	243.07	316.23	2310.76	2330.1	2851.75	2750.45	2550.0	2400.0	2325.01	206.16		150.0	225.08	2350.53	2550.0	2700.0	2775.01	4900.26	5250.0	5100.0	5325.0	5306.25	4164.88	2785.0	1676.68	601.04	1131.92	2443.61	3571.59	4162.18	3039.12	1737.31	906.23	1310.62	2326.21	3663.64	4796.48	5147.87	5061.01	4875.71	3764.31	2713.93	2627.16	2459.67	1520.69	1111.4	1093.19	1154.34	1860.11	2847.81	2914.3	3101.61	4196.72	4066.87	3780.54	1817.94	1640.12	1753.68	2022.99	3981.32	4301.16	7446.7	7196.08	6837.6	6833.66	7145.43	7390.48	8268.41	8691.63	8768.68	8834.04	8626.7	8528.92	7491.16	7576.32	7478.8	7400.34	6953.42	7054.49	7102.82	7056.38	7320.37	7425.37	7613.97	7604.28	7591.11	7542.05	7512.81	7150.0	7151.57	7147.54	7591.11	7642.81	7664.03	8870.46	8782.51	8910.24	
8336.44	7683.18	7061.25	6727.65	6575.05	6670.55	7043.17	7532.35	7610.77	7032.87	6546.25	6346.75	6386.53	6641.25	7192.17	7806.17	7364.95	7139.36	6775.32	6647.05	6706.52	6270.96	6080.37	6070.63	6075.71	6045.11	6116.58	5998.03	6387.88	6469.63	6473.69	6964.55	6927.26	7600.16	7763.94	7733.24	7058.68	6015.19	5961.96	6921.89	3147.93	2443.31	666.21	346.51	1995.8	2697.29	4530.74	5237.91	5201.88	5172.95	4651.08	2655.62	2623.87	2102.38	223.62	122.41	460.98	2460.22	2479.98	3001.67	2900.43	2700.0	2550.0	2475.01	353.55	150.0		75.24	2200.57	2400.0	2550.0	2625.01	4750.26	5100.0	4950.0	5175.0	5157.16	4016.37	2638.42	1536.64	575.54	1263.43	2589.64	3719.71	4309.32	3183.75	1870.76	977.88	1197.59	2186.61	3517.63	4648.79	5001.5	4914.59	4729.69	3621.12	2577.75	2491.24	2326.48	1421.27	1131.2	1124.44	1208.3	1983.05	2986.54	3054.09	3242.3	4341.66	4209.86	3921.73	1929.61	1735.66	1651.94	1910.5	3839.19	4158.43	7508.0	7244.84	6848.69	6829.2	7102.39	7334.39	8184.64	8599.63	8678.01	8744.49	8542.39	8445.41	7436.43	7522.73	7433.03	7356.12	6949.69	7051.37	7108.62	7064.35	7368.91	7473.76	7669.42	7661.76	7642.81	7591.11	7560.58	7151.57	7150.0	7144.39	7542.05	7591.11	7611.0	8782.51	8696.26	8821.41	
8285.79	7639.49	7028.64	6706.29	6569.19	6677.71	7064.83	7564.01	7647.75	7060.61	6560.11	6347.42	6370.8	6613.04	7151.51	7757.56	7403.08	7176.93	6804.08	6673.25	6733.39	6285.34	6093.13	6071.29	6073.96	6042.35	6100.05	5979.07	6358.5	6438.35	6441.48	6922.47	6883.11	7550.2	7712.36	7682.24	7011.99	5992.33	5971.01	6957.22	3221.93	2516.92	729.89	320.41	1920.84	2622.11	4455.51	5162.68	5126.71	5097.85	4575.97	2580.38	2548.7	2027.18	196.35	93.05	533.35	2534.51	2554.69	3076.44	2975.33	2775.01	2625.01	2550.0	427.27	225.08	75.24		2125.46	2325.01	2475.01	2550.0	4675.21	5025.0	4875.0	5100.0	5083.31	3943.04	2566.62	1469.71	583.15	1333.25	2664.12	3794.74	4384.09	3257.77	1940.94	1024.97	1148.59	2119.68	3446.2	4576.09	4929.75	4842.8	4658.2	3551.6	2512.91	2426.58	2263.59	1379.8	1154.14	1152.78	1246.54	2049.11	3058.48	3126.42	3314.95	4415.75	4283.29	3994.53	1991.12	1790.6	1608.59	1860.45	3770.35	4089.16	7545.02	7275.89	6861.43	6834.21	7087.75	7312.95	8148.5	8559.03	8638.12	8705.21	8505.93	8409.39	7415.68	7502.56	7416.93	7340.83	6955.04	7057.0	7118.7	7075.5	7399.85	7504.6	7703.63	7696.93	7675.22	7622.27	7591.11	7159.54	7156.39	7150.0	7524.22	7571.92	7591.11	8744.08	8658.75	8782.51	
7150.61	6762.12	6535.77	6570.86	6877.95	7323.34	8056.13	8780.16	8985.86	8197.64	7379.37	6841.14	6416.36	6277.44	6394.46	6709.42	8772.68	8538.79	7972.61	7786.07	7859.99	7128.99	6905.9	6579.51	6518.92	6462.43	6139.22	5956.25	6001.87	6018.16	5992.35	6128.83	6022.24	6462.2	6561.89	6553.26	6058.26	5854.91	6697.95	8273.45	5338.14	4630.0	2794.66	2089.78	359.91	549.97	2335.37	3040.19	3001.8	2972.4	2450.51	472.76	424.84	111.8	2107.42	2128.56	2650.47	4654.45	4678.26	5200.24	5100.0	4900.26	4750.26	4675.21	2550.0	2350.53	2200.57	2125.46		206.16	353.55	427.27	2550.0	2900.43	2750.45	2975.33	2991.03	1881.82	728.87	995.62	2263.02	3383.23	4766.16	5908.15	6488.99	5347.08	3977.0	2862.04	1590.92	892.33	1500.18	2531.06	2917.12	2830.24	2661.3	1698.53	1165.94	1132.85	1159.74	1735.66	2685.93	2749.81	2934.71	4018.08	5106.27	5181.17	5374.48	6502.5	6354.4	6052.48	3893.44	3611.79	1715.93	1569.24	1932.59	2210.2	8698.93	8286.72	7415.24	7183.32	6877.88	6894.59	7254.63	7515.03	7614.07	7697.86	7591.11	7510.83	7013.32	7113.53	7150.0	7100.7	7307.83	7413.0	7591.11	7578.42	8403.99	8503.4	8782.51	8800.57	8709.19	8625.69	8579.58	7573.8	7528.61	7501.28	7202.78	7208.5	7206.54	7762.09	7707.3	7784.87	
7117.32	6761.01	6577.33	6646.9	6990.8	7460.31	8215.0	8951.89	9164.49	8365.48	7528.43	6968.59	6509.36	6336.11	6408.69	6688.52	8953.35	8719.31	8142.79	7953.21	8027.84	7280.45	7055.98	6709.14	6644.02	6585.88	6233.18	6045.86	6060.12	6070.0	6041.44	6140.44	6026.85	6437.58	6529.1	6523.18	6051.86	5934.85	6842.88	8451.77	5540.6	4832.74	2998.77	2294.7	540.4	425.4	2143.93	2846.27	2805.21	2773.77	2252.22	319.23	243.07	316.23	2310.76	2330.1	2851.75	4856.16	4879.0	5400.93	5300.24	5100.0	4950.0	4875.0	2750.45	2550.0	2400.0	2325.01	206.16		150.0	225.08	2350.53	2700.0	2550.0	2775.01	2785.0	1676.68	601.04	1131.92	2443.61	3571.59	4958.45	6102.15	6680.89	5536.81	4162.18	3039.12	1737.31	906.23	1310.62	2326.21	2713.93	2627.16	2459.67	1520.69	1111.4	1093.19	1154.34	1860.11	2847.81	2914.3	3101.61	4196.72	5290.54	5366.21	5559.9	6691.04	6540.56	6236.99	4066.87	3780.54	1817.94	1640.12	1753.68	2022.99	8784.02	8359.02	7446.7	7196.08	6837.6	6833.66	7145.43	7390.48	7491.16	7576.32	7478.8	7400.34	6953.42	7054.49	7102.82	7056.38	7320.37	7425.37	7613.97	7604.28	8475.29	8573.88	8860.02	8880.46	8782.51	8696.26	8648.84	7591.11	7542.05	7512.81	7150.0	7151.57	7147.54	7642.81	7591.11	7664.03	
7061.25	6727.65	6575.05	6670.55	7043.17	7532.35	8305.8	9054.35	9273.58	8464.41	7610.77	7032.87	6546.25	6346.75	6386.53	6641.25	9064.49	8830.34	8243.94	8051.58	8126.84	7364.95	7139.36	6775.32	6706.52	6647.05	6270.96	6080.37	6070.63	6075.71	6045.11	6116.58	5998.03	6387.88	6473.69	6469.63	6015.19	5961.96	6921.89	8560.67	5690.35	4982.42	3147.93	2443.31	666.21	346.51	1995.8	2697.29	2655.62	2623.87	2102.38	223.62	122.41	460.98	2460.22	2479.98	3001.67	5006.04	5028.97	5550.9	5450.23	5250.0	5100.0	5025.0	2900.43	2700.0	2550.0	2475.01	353.55	150.0		75.24	2200.57	2550.0	2400.0	2625.01	2638.42	1536.64	575.54	1263.43	2589.64	3719.71	5107.47	6251.5	6829.77	5685.18	4309.32	3183.75	1870.76	977.88	1197.59	2186.61	2577.75	2491.24	2326.48	1421.27	1131.2	1124.44	1208.3	1983.05	2986.54	3054.09	3242.3	4341.66	5437.3	5513.22	5707.01	6839.04	6687.85	6383.77	4209.86	3921.73	1929.61	1735.66	1651.94	1910.5	8879.23	8446.44	7508.0	7244.84	6848.69	6829.2	7102.39	7334.39	7436.43	7522.73	7433.03	7356.12	6949.69	7051.37	7108.62	7064.35	7368.91	7473.76	7669.42	7661.76	8562.04	8660.1	8950.56	8972.46	8870.46	8782.51	8734.26	7642.81	7591.11	7560.58	7151.57	7150.0	7144.39	7591.11	7542.05	7611.0	
7028.64	6706.29	6569.19	6677.71	7064.83	7564.01	8347.11	9101.74	9324.49	8509.98	7647.75	7060.61	6560.11	6347.42	6370.8	6613.04	9116.5	8882.3	8290.69	8096.89	8172.47	7403.08	7176.93	6804.08	6733.39	6673.25	6285.34	6093.13	6071.29	6073.96	6042.35	6100.05	5979.07	6358.5	6441.48	6438.35	5992.33	5971.01	6957.22	8611.5	5764.89	5056.88	3221.93	2516.92	729.89	320.41	1920.84	2622.11	2580.38	2548.7	2027.18	196.35	93.05	533.35	2534.51	2554.69	3076.44	5080.74	5103.85	5625.79	5525.18	5325.0	5175.0	5100.0	2975.33	2775.01	2625.01	2550.0	427.27	225.08	75.24		2125.46	2475.01	2325.01	2550.0	2566.62	1469.71	583.15	1333.25	2664.12	3794.74	5182.67	6326.73	6904.95	5760.26	4384.09	3257.77	1940.94	1024.97	1148.59	2119.68	2512.91	2426.58	2263.59	1379.8	1154.14	1152.78	1246.54	2049.11	3058.48	3126.42	3314.95	4415.75	5511.95	5587.94	5781.77	6914.03	6762.66	6458.43	4283.29	3994.53	1991.12	1790.6	1608.59	1860.45	8931.99	8495.63	7545.02	7275.89	6861.43	6834.21	7087.75	7312.95	7415.68	7502.56	7416.93	7340.83	6955.04	7057.0	7118.7	7075.5	7399.85	7504.6	7703.63	7696.93	8610.92	8708.72	9001.16	9023.73	8919.86	8831.14	8782.51	7675.22	7622.27	7591.11	7159.54	7156.39	7150.0	7571.92	7524.22	7591.11	
6535.77	6570.86	6877.95	7323.34	8056.13	8780.16	9772.47	10656.28	10956.33	10030.27	8985.86	8197.64	7379.37	6841.14	6416.36	6277.44	10775.09	10542.08	9840.73	9617.05	9698.84	8772.68	8538.79	7972.61	7859.99	7786.07	7128.99	6905.9	6579.51	6518.92	6462.43	6139.22	5956.25	6001.87	5992.35	6018.16	5854.91	6697.95	8273.45	10249.02	7885.83	7177.16	5338.14	4630.0	2794.66	2089.78	359.91	549.97	472.76	424.84	111.8	2107.42	2128.56	2650.47	4654.45	4678.26	5200.24	7203.58	7228.17	7750.16	7650.0	7450.17	7300.17	7225.13	5100.0	4900.26	4750.26	4675.21	2550.0	2350.53	2200.57	2125.46		353.55	206.16	427.27	728.87	995.62	2263.02	3383.23	4766.16	5908.15	7301.8	8448.15	9022.34	7873.77	6488.99	5347.08	3977.0	2862.04	1590.92	892.33	1165.94	1132.85	1159.74	1735.66	2685.93	2749.81	2934.71	4018.08	5106.27	5181.17	5374.48	6502.5	7611.75	7689.78	7884.32	9023.58	8865.83	8557.16	6354.4	6052.48	3893.44	3611.79	1715.93	1569.24	10457.63	9937.03	8698.93	8286.72	7415.24	7183.32	6877.88	6894.59	7013.32	7113.53	7150.0	7100.7	7307.83	7413.0	7591.11	7578.42	8403.99	8503.4	8782.51	8800.57	10042.65	10132.53	10471.15	10510.59	10360.62	10253.29	10195.8	8709.19	8625.69	8579.58	7573.8	7528.61	7501.28	7208.5	7202.78	7206.54	
6575.05	6670.55	7043.17	7532.35	8305.8	9054.35	10068.33	10965.0	11272.97	10336.16	9273.58	8464.41	7610.77	7032.87	6546.25	6346.75	11094.71	10862.06	10150.12	9923.6	10005.93	9064.49	8830.34	8243.94	8126.84	8051.58	7364.95	7139.36	6775.32	6706.52	6647.05	6270.96	6080.37	6070.63	6045.11	6075.71	5961.96	6921.89	8560.67	10567.05	8237.45	7528.89	5690.35	4982.42	3147.93	2443.31	666.21	346.51	223.62	122.41	460.98	2460.22	2479.98	3001.67	5006.04	5028.97	5550.9	7554.67	7578.65	8100.62	8000.16	7800.0	7650.0	7575.0	5450.23	5250.0	5100.0	5025.0	2900.43	2700.0	2550.0	2475.01	353.55		150.0	75.24	575.54	1263.43	2589.64	3719.71	5107.47	6251.5	7646.65	8793.82	9366.23	8216.52	6829.77	5685.18	4309.32	3183.75	1870.76	977.88	1131.2	1124.44	1208.3	1983.05	2986.54	3054.09	3242.3	4341.66	5437.3	5513.22	5707.01	6839.04	7950.72	8029.24	8223.9	9364.83	9205.26	8895.5	6687.85	6383.77	4209.86	3921.73	1929.61	1735.66	10691.88	10158.84	8879.23	8446.44	7508.0	7244.84	6848.69	6829.2	6949.69	7051.37	7108.62	7064.35	7368.91	7473.76	7669.42	7661.76	8562.04	8660.1	8950.56	8972.46	10262.62	10350.98	10696.26	10738.37	10581.23	10471.15	10412.37	8870.46	8782.51	8734.26	7642.81	7591.11	7560.58	7150.0	7151.57	7144.39	
6577.33	6646.9	6990.8	7460.31	8215.0	8951.89	9955.21	10845.33	11149.14	10217.94	9164.49	8365.48	7528.43	6968.59	6509.36	6336.11	10969.28	10736.43	10030.08	9805.02	9887.08	8953.35	8719.31	8142.79	8027.84	7953.21	7280.45	7055.98	6709.14	6644.02	6585.88	6233.18	6045.86	6060.12	6041.44	6070.0	5934.85	6842.88	8451.77	10442.46	8087.57	7379.03	5540.6	4832.74	2998.77	2294.7	540.4	425.4	319.23	243.07	316.23	2310.76	2330.1	2851.75	4856.16	4879.0	5400.93	7404.73	7428.66	7950.63	7850.16	7650.0	7500.0	7425.0	5300.24	5100.0	4950.0	4875.0	2750.45	2550.0	2400.0	2325.01	206.16	150.0		225.08	601.04	1131.92	2443.61	3571.59	4958.45	6102.15	7497.08	8644.15	9216.82	8067.3	6680.89	5536.81	4162.18	3039.12	1737.31	906.23	1111.4	1093.19	1154.34	1860.11	2847.81	2914.3	3101.61	4196.72	5290.54	5366.21	5559.9	6691.04	7802.22	7880.63	8075.27	9215.88	9056.68	8747.14	6540.56	6236.99	4066.87	3780.54	1817.94	1640.12	10576.84	10048.28	8784.02	8359.02	7446.7	7196.08	6837.6	6833.66	6953.42	7054.49	7102.82	7056.38	7320.37	7425.37	7613.97	7604.28	8475.29	8573.88	8860.02	8880.46	10152.74	10241.67	10584.54	10625.68	10471.15	10362.07	10303.75	8782.51	8696.26	8648.84	7591.11	7542.05	7512.81	7151.57	7150.0	7147.54	
6569.19	6677.71	7064.83	7564.01	8347.11	9101.74	10121.35	11021.54	11331.77	10391.93	9324.49	8509.98	7647.75	7060.61	6560.11	6347.42	11154.4	10921.87	10206.89	9979.58	10062.05	9116.5	8882.3	8290.69	8172.47	8096.89	7403.08	7176.93	6804.08	6733.39	6673.25	6285.34	6093.13	6071.29	6042.35	6073.96	5971.01	6957.22	8611.5	10626.29	8312.16	7603.57	5764.89	5056.88	3221.93	2516.92	729.89	320.41	196.35	93.05	533.35	2534.51	2554.69	3076.44	5080.74	5103.85	5625.79	7629.49	7653.57	8175.54	8075.12	7875.0	7725.0	7650.0	5525.18	5325.0	5175.0	5100.0	2975.33	2775.01	2625.01	2550.0	427.27	75.24	225.08		583.15	1333.25	2664.12	3794.74	5182.67	6326.73	7721.89	8869.05	9441.47	8291.75	6904.95	5760.26	4384.09	3257.77	1940.94	1024.97	1154.14	1152.78	1246.54	2049.11	3058.48	3126.42	3314.95	4415.75	5511.95	5587.94	5781.77	6914.03	8025.83	8104.36	8299.03	9440.01	9280.39	8970.58	6762.66	6458.43	4283.29	3994.53	1991.12	1790.6	10753.54	10218.51	8931.99	8495.63	7545.02	7275.89	6861.43	6834.21	6955.04	7057.0	7118.7	7075.5	7399.85	7504.6	7703.63	7696.93	8610.92	8708.72	9001.16	9023.73	10321.97	10410.07	10756.43	10798.97	10640.67	10530.15	10471.15	8919.86	8831.14	8782.51	7675.22	7622.27	7591.11	7156.39	7159.54	7150.0	
7150.0	7241.89	7591.11	8050.62	8782.51	9496.58	10471.15	11338.54	11625.56	10716.81	9692.56	8918.1	8108.18	7564.39	7109.47	6921.89	11438.8	11205.21	10522.42	10302.91	10383.92	9475.82	9242.28	8690.87	8580.51	8507.21	7857.56	7634.63	7303.85	7240.83	7183.33	6833.47	6645.35	6645.77	6620.65	6651.24	6531.56	7426.73	8980.88	10916.1	8305.02	7600.12	5776.7	5076.87	3282.09	2606.23	1085.83	902.89	779.43	675.64	825.38	2595.71	2592.16	3099.4	5086.54	5097.75	5615.71	7616.63	7632.82	8152.99	8049.3	7846.1	7696.51	7622.18	5510.56	5306.25	5157.16	5083.31	2991.03	2785.0	2638.42	2566.62	728.87	575.54	601.04	583.15		1150.0	2550.0	3700.0	5100.0	6250.0	7650.0	8800.0	9358.29	8203.81	6809.52	5655.53	4262.22	3110.06	1722.94	604.15	588.78	605.48	742.46	1755.35	2848.5	2925.27	3119.5	4257.49	5374.59	5454.61	5649.45	6795.31	7916.03	7997.09	8191.84	9339.77	9169.88	8854.73	6629.45	6316.74	4100.93	3794.9	1640.32	1380.67	10354.3	9800.88	8462.18	8004.37	7000.74	6714.75	6278.31	6253.85	6374.42	6476.17	6535.77	6492.4	6838.38	6942.88	7150.61	7146.77	8117.8	8214.1	8517.7	8544.37	9901.45	9987.2	10342.93	10389.48	10220.63	10106.25	10045.48	8429.49	8336.44	8285.79	7117.32	7061.25	7028.64	6575.05	6577.33	6569.19	
7241.89	7150.0	7285.77	7591.11	8168.54	8782.51	9662.94	10471.15	10721.92	9864.71	8922.82	8237.72	7568.26	7170.25	6924.28	6926.04	10522.42	10288.13	9656.15	9450.24	9528.48	8690.87	8460.12	7994.76	7902.94	7835.47	7303.85	7092.72	6899.0	6864.82	6818.16	6645.77	6484.18	6654.42	6677.2	6693.3	6425.05	6921.8	8218.65	10009.31	7162.89	6459.58	4644.24	3950.19	2199.05	1576.96	1052.49	1540.98	1448.41	1373.71	954.59	1537.24	1511.58	1992.8	3953.9	3960.77	4476.19	6473.68	6488.1	7007.59	6903.35	6699.72	6550.29	6476.11	4369.93	4164.88	4016.37	3943.04	1881.82	1676.68	1536.64	1469.71	995.62	1263.43	1131.92	1333.25	1150.0		1400.0	2550.0	3950.0	5100.0	6500.0	7650.0	8208.75	7054.43	5660.44	4506.94	3114.89	1965.96	607.89	650.0	1048.22	963.23	816.24	742.46	1732.36	1803.72	1995.31	3119.5	4231.83	4310.92	4505.69	5649.45	6769.1	6849.79	7044.59	8191.84	8023.44	7709.17	5486.68	5176.03	2972.65	2675.12	758.06	725.43	9462.83	8945.48	7733.51	7341.62	6563.08	6386.1	6272.63	6377.3	6490.27	6585.7	6570.86	6510.09	6510.67	6615.83	6762.12	6741.01	7460.5	7561.22	7828.23	7842.59	9051.75	9142.2	9478.46	9517.16	9369.43	9263.17	9206.21	7761.85	7683.18	7639.49	6761.01	6727.65	6706.29	6670.55	6646.9	6677.71	
7591.11	7285.77	7150.0	7241.89	7591.11	8050.62	8782.51	9496.58	9692.56	8918.1	8108.18	7564.39	7109.47	6921.89	6953.53	7184.01	9475.82	9242.28	8690.87	8507.21	8580.51	7857.56	7634.63	7303.85	7240.83	7183.33	6833.47	6645.35	6645.77	6651.24	6620.65	6682.53	6560.38	6927.57	7005.05	7003.81	6570.48	6531.56	7426.73	8980.88	5776.7	5076.87	3282.09	2606.23	1085.83	902.89	2142.65	2800.54	2735.38	2683.04	2182.03	779.43	675.64	825.38	2595.71	2592.16	3099.4	5086.54	5097.75	5615.71	5510.56	5306.25	5157.16	5083.31	2991.03	2785.0	2638.42	2566.62	728.87	601.04	575.54	583.15	2263.02	2589.64	2443.61	2664.12	2550.0	1400.0		1150.0	2550.0	3700.0	5100.0	6250.0	6809.52	5655.53	4262.22	3110.06	1722.94	604.15	880.64	2015.56	2363.13	2276.18	2091.95	1020.42	588.78	605.48	742.46	1755.35	2848.5	2925.27	3119.5	4257.49	5374.59	5454.61	5649.45	6795.31	6629.45	6316.74	4100.93	3794.9	1640.32	1380.67	1252.46	1554.43	8462.18	8004.37	7000.74	6714.75	6278.31	6253.85	6544.4	6792.53	6892.61	6977.32	6877.95	6799.36	6374.42	6476.17	6535.77	6492.4	6838.38	6942.88	7150.61	7146.77	8117.8	8214.1	8517.7	8544.37	8429.49	8336.44	8285.79	7117.32	7061.25	7028.64	6577.33	6575.05	6569.19	7043.17	6990.8	7064.83	
8050.62	7591.11	7241.89	7150.0	7285.77	7591.11	8168.54	8782.51	8922.82	8237.72	7568.26	7170.25	6924.28	6926.04	7184.54	7585.02	8690.87	8460.12	7994.76	7835.47	7902.94	7303.85	7092.72	6899.0	6864.82	6818.16	6645.77	6484.18	6654.42	6693.3	6677.2	6927.57	6840.15	7346.51	7462.42	7448.46	6903.35	6425.05	6921.8	8218.65	4644.24	3950.19	2199.05	1576.96	1052.49	1540.98	3222.52	3907.35	3851.97	3807.14	3294.88	1448.41	1373.71	954.59	1537.24	1511.58	1992.8	3953.9	3960.77	4476.19	4369.93	4164.88	4016.37	3943.04	1881.82	1676.68	1536.64	1469.71	995.62	1131.92	1263.43	1333.25	3383.23	3719.71	3571.59	3794.74	3700.0	2550.0	1150.0		1400.0	2550.0	3950.0	5100.0	5660.44	4506.94	3114.89	1965.96	607.89	650.0	2010.36	3159.91	3493.06	3406.94	3218.11	2091.95	1048.22	963.23	816.24	742.46	1732.36	1803.72	1995.31	3119.5	4231.83	4310.92	4505.69	5649.45	5486.68	5176.03	2972.65	2675.12	758.06	725.43	2306.0	2627.02	7733.51	7341.62	6563.08	6386.1	6272.63	6377.3	6973.01	7318.66	7406.98	7481.88	7323.34	7233.69	6490.27	6585.7	6570.86	6510.09	6510.67	6615.83	6762.12	6741.01	7460.5	7561.22	7828.23	7842.59	7761.85	7683.18	7639.49	6761.01	6727.65	6706.29	6646.9	6670.55	6677.71	7532.35	7460.31	7564.01	
8782.51	8168.54	7591.11	7285.77	7150.0	7241.89	7591.11	8050.62	8108.18	7564.39	7109.47	6921.89	6953.53	7184.01	7691.79	8265.14	7857.56	7634.63	7303.85	7183.33	7240.83	6833.47	6645.35	6645.77	6651.24	6620.65	6682.53	6560.38	6927.57	7003.81	7005.05	7457.97	7410.91	8051.16	8204.47	8177.58	7529.03	6570.48	6531.56	7426.73	3282.09	2606.23	1085.83	902.89	2142.65	2800.54	4583.43	5279.76	5230.88	5190.94	4674.0	2735.38	2683.04	2182.03	779.43	675.64	825.38	2595.71	2592.16	3099.4	2991.03	2785.0	2638.42	2566.62	728.87	601.04	575.54	583.15	2263.02	2443.61	2589.64	2664.12	4766.16	5107.47	4958.45	5182.67	5100.0	3950.0	2550.0	1400.0		1150.0	2550.0	3700.0	4262.22	3110.06	1722.94	604.15	880.64	2015.56	3404.05	4556.86	4881.3	4795.87	4605.02	3465.0	2363.13	2276.18	2091.95	1020.42	588.78	605.48	742.46	1755.35	2848.5	2925.27	3119.5	4257.49	4100.93	3794.9	1640.32	1380.67	1252.46	1554.43	3667.65	3991.4	7000.74	6714.75	6278.31	6253.85	6544.4	6792.53	7697.14	8134.57	8209.01	8272.25	8056.13	7957.15	6892.61	6977.32	6877.95	6799.36	6374.42	6476.17	6535.77	6492.4	6838.38	6942.88	7150.61	7146.77	7117.32	7061.25	7028.64	6577.33	6575.05	6569.19	6990.8	7043.17	7064.83	8305.8	8215.0	8347.11	
9496.58	8782.51	8050.62	7591.11	7241.89	7150.0	7285.77	7591.11	7568.26	7170.25	6924.28	6926.04	7184.54	7585.02	8264.06	8949.86	7303.85	7092.72	6899.0	6818.16	6864.82	6645.77	6484.18	6654.42	6693.3	6677.2	6927.57	6840.15	7346.51	7448.46	7462.42	8051.16	8033.41	8755.93	8932.83	8897.42	8187.57	6903.35	6425.05	6921.8	2199.05	1576.96	1052.49	1540.98	3222.52	3907.35	5715.46	6416.01	6370.44	6332.97	5814.31	3851.97	3807.14	3294.88	1448.41	1373.71	954.59	1537.24	1511.58	1992.8	1881.82	1676.68	1536.64	1469.71	995.62	1131.92	1263.43	1333.25	3383.23	3571.59	3719.71	3794.74	5908.15	6251.5	6102.15	6326.73	6250.0	5100.0	3700.0	2550.0	1150.0		1400.0	2550.0	3114.89	1965.96	607.89	650.0	2010.36	3159.91	4551.76	5705.48	6025.71	5940.67	5749.02	4605.02	3493.06	3406.94	3218.11	2091.95	1048.22	963.23	816.24	742.46	1732.36	1803.72	1995.31	3119.5	2972.65	2675.12	758.06	725.43	2306.0	2627.02	4802.67	5126.52	6563.08	6386.1	6272.63	6377.3	6973.01	7318.66	8420.5	8914.07	8978.21	9032.76	8780.16	8676.19	7406.98	7481.88	7323.34	7233.69	6490.27	6585.7	6570.86	6510.09	6510.67	6615.83	6762.12	6741.01	6761.01	6727.65	6706.29	6646.9	6670.55	6677.71	7460.31	7532.35	7564.01	9054.35	8951.89	9101.74	
10471.15	9662.94	8782.51	8168.54	7591.11	7285.77	7150.0	7241.89	7109.47	6921.89	6953.53	7184.01	7691.79	8265.14	9109.37	9900.51	6833.47	6645.35	6645.77	6620.65	6651.24	6682.53	6560.38	6927.57	7003.81	7005.05	7457.97	7410.91	8051.16	8177.58	8204.47	8921.39	8933.62	9729.14	9927.79	9884.19	9121.75	7529.03	6570.48	6531.56	1085.83	902.89	2142.65	2800.54	4583.43	5279.76	7101.39	7804.72	7761.89	7726.45	7206.68	5230.88	5190.94	4674.0	2735.38	2683.04	2182.03	779.43	675.64	825.38	728.87	601.04	575.54	583.15	2263.02	2443.61	2589.64	2664.12	4766.16	4958.45	5107.47	5182.67	7301.8	7646.65	7497.08	7721.89	7650.0	6500.0	5100.0	3950.0	2550.0	1400.0		1150.0	1722.94	604.15	880.64	2015.56	3404.05	4556.86	5950.17	7104.4	7421.24	7336.54	7144.32	5998.02	4881.3	4795.87	4605.02	3465.0	2363.13	2276.18	2091.95	1020.42	588.78	605.48	742.46	1755.35	1640.32	1380.67	1252.46	1554.43	3667.65	3991.4	6191.9	6515.46	6278.31	6253.85	6544.4	6792.53	7697.14	8134.57	9416.37	9960.37	10013.62	10058.95	9772.47	9664.69	8209.01	8272.25	8056.13	7957.15	6892.61	6977.32	6877.95	6799.36	6374.42	6476.17	6535.77	6492.4	6577.33	6575.05	6569.19	6990.8	7043.17	7064.83	8215.0	8305.8	8347.11	10068.33	9955.21	10121.35	
11338.54	10471.15	9496.58	8782.51	8050.62	7591.11	7241.89	7150.0	6924.28	6926.04	7184.54	7585.02	8264.06	8949.86	9898.31	10755.12	6645.77	6484.18	6654.42	6677.2	6693.3	6927.57	6840.15	7346.51	7448.46	7462.42	8051.16	8033.41	8755.93	8897.42	8932.83	9729.14	9761.59	10600.29	10812.41	10763.52	9971.02	8187.57	6903.35	6425.05	1052.49	1540.98	3222.52	3907.35	5715.46	6416.01	8243.39	8948.07	8906.87	8872.64	8352.32	6370.44	6332.97	5814.31	3851.97	3807.14	3294.88	1448.41	1373.71	954.59	995.62	1131.92	1263.43	1333.25	3383.23	3571.59	3719.71	3794.74	5908.15	6102.15	6251.5	6326.73	8448.15	8793.82	8644.15	8869.05	8800.0	7650.0	6250.0	5100.0	3700.0	2550.0	1150.0		607.89	650.0	2010.36	3159.91	4551.76	5705.48	7099.33	8253.79	8568.66	8484.16	8291.64	7144.32	6025.71	5940.67	5749.02	4605.02	3493.06	3406.94	3218.11	2091.95	1048.22	963.23	816.24	742.46	758.06	725.43	2306.0	2627.02	4802.67	5126.52	7336.12	7659.39	6272.63	6377.3	6973.01	7318.66	8420.5	8914.07	10304.93	10879.5	10925.11	10963.94	10656.28	10546.62	8978.21	9032.76	8780.16	8676.19	7406.98	7481.88	7323.34	7233.69	6490.27	6585.7	6570.86	6510.09	6646.9	6670.55	6677.71	7460.31	7532.35	7564.01	8951.89	9054.35	9101.74	10965.0	10845.33	11021.54	
11926.71	11047.73	10051.79	9311.79	8534.37	8023.18	7591.93	7418.79	7150.0	7240.71	7591.11	8051.14	8782.51	9498.36	10471.15	11341.16	6873.07	6726.28	6973.56	7016.93	7026.65	7341.29	7267.48	7819.91	7929.92	7947.99	8576.42	8567.08	9310.02	9455.08	9492.56	10306.33	10343.03	11189.59	11404.03	11354.23	10556.58	8730.74	7349.51	6694.01	1589.97	2140.07	3825.62	4505.91	6304.59	7002.25	8824.13	9527.06	9483.45	9447.1	8927.84	6953.81	6913.75	6396.94	4447.49	4399.69	3891.06	2051.79	1979.79	1537.8	1590.92	1737.31	1870.76	1940.94	3977.0	4162.18	4309.32	4384.09	6488.99	6680.89	6829.77	6904.95	9022.34	9366.23	9216.82	9441.47	9358.29	8208.75	6809.52	5660.44	4262.22	3114.89	1722.94	607.89		1155.0	2550.0	3705.0	5100.0	6255.0	7650.0	8805.0	9111.49	9027.72	8834.34	7684.99	6563.23	6479.18	6286.11	5137.47	4017.19	3932.54	3740.27	2594.83	1484.8	1398.2	1212.08	278.62	475.85	713.04	2792.84	3116.72	5327.14	5650.17	7871.59	8193.9	6100.8	6271.27	7023.33	7419.72	8627.84	9153.17	10609.29	11203.29	11243.45	11277.66	10956.33	10845.73	9210.58	9259.48	8985.86	8879.44	7500.63	7569.36	7379.37	7284.5	6378.81	6469.74	6416.36	6347.32	6509.36	6546.25	6560.11	7528.43	7610.77	7647.75	9164.49	9273.58	9324.49	11272.97	11149.14	11331.77	
11045.36	10220.69	9310.34	8660.83	8023.09	7652.61	7420.41	7424.28	7244.66	7150.0	7286.78	7591.11	8167.87	8782.51	9661.06	10471.15	6966.44	6791.07	6875.05	6872.64	6896.48	7021.13	6913.87	7341.41	7428.38	7434.77	7941.43	7905.04	8575.04	8706.62	8736.34	9478.46	9496.45	10303.94	10506.01	10461.1	9690.52	8036.25	6947.03	6704.2	1152.36	1319.86	2746.79	3402.18	5173.66	5866.23	7680.73	8381.85	8336.38	8298.6	7780.18	5814.24	5771.45	5257.02	3334.76	3279.85	2783.21	1200.34	1100.08	928.04	892.33	906.23	977.88	1024.97	2862.04	3039.12	3183.75	3257.77	5347.08	5536.81	5685.18	5760.26	7873.77	8216.52	8067.3	8291.75	8203.81	7054.43	5655.53	4506.94	3110.06	1965.96	604.15	650.0	1155.0		1395.0	2550.0	3945.0	5100.0	6495.0	7650.0	7957.07	7873.2	7679.93	6530.79	5409.46	5325.21	5132.37	3984.5	2866.11	2780.9	2589.64	1451.29	414.56	337.65	276.13	1158.12	1036.17	785.02	1660.32	1982.74	4176.68	4500.14	6718.46	7041.04	5999.26	6038.41	6496.77	6804.06	7837.73	8314.63	9677.65	10245.77	10293.0	10333.25	10030.27	9921.0	8381.89	8439.13	8197.64	8095.14	6897.2	6976.15	6841.14	6755.83	6155.61	6254.56	6277.44	6225.45	6336.11	6346.75	6347.42	6968.59	7032.87	7060.61	8365.48	8464.41	8509.98	10336.16	10217.94	10391.93	
10051.79	9311.79	8534.37	8023.18	7591.93	7418.79	7446.1	7662.27	7591.11	7282.85	7150.0	7240.71	7591.11	8051.14	8782.51	9498.36	7320.42	7118.59	7008.21	6950.48	6990.63	6873.07	6726.28	6973.56	7026.65	7016.93	7341.29	7267.48	7819.91	7929.92	7947.99	8576.42	8567.08	9310.02	9492.56	9455.08	8730.74	7349.51	6694.01	6972.04	1850.84	1364.4	1589.97	2140.07	3825.62	4505.91	6304.59	7002.25	6953.81	6913.75	6396.94	4447.49	4399.69	3891.06	2051.79	1979.79	1537.8	1282.4	1219.38	1610.69	1500.18	1310.62	1197.59	1148.59	1590.92	1737.31	1870.76	1940.94	3977.0	4162.18	4309.32	4384.09	6488.99	6829.77	6680.89	6904.95	6809.52	5660.44	4262.22	3114.89	1722.94	607.89	880.64	2010.36	2550.0	1395.0		1155.0	2550.0	3705.0	5100.0	6255.0	6563.23	6479.18	6286.11	5137.47	4017.19	3932.54	3740.27	2594.83	1484.8	1398.2	1212.08	278.62	1129.8	1204.18	1397.72	2535.18	2378.64	2075.56	475.85	713.04	2792.84	3116.72	5327.14	5650.17	6173.93	6050.67	6100.8	6271.27	7023.33	7419.72	8627.84	9153.17	9210.58	9259.48	8985.86	8879.44	7500.63	7569.36	7379.37	7284.5	6378.81	6469.74	6416.36	6347.32	6174.45	6278.92	6394.46	6365.37	6408.69	6386.53	6370.8	6509.36	6546.25	6560.11	7528.43	7610.77	7647.75	9273.58	9164.49	9324.49	
9310.34	8660.83	8023.09	7652.61	7420.41	7424.28	7665.51	8042.54	8054.7	7591.11	7244.66	7150.0	7286.78	7591.11	8167.87	8782.51	7795.59	7578.96	7324.02	7224.64	7276.47	6966.44	6791.07	6875.05	6896.48	6872.64	7021.13	6913.87	7341.41	7428.38	7434.77	7941.43	7905.04	8575.04	8736.34	8706.62	8036.25	6947.03	6704.2	7391.63	2848.87	2216.8	1152.36	1319.86	2746.79	3402.18	5173.66	5866.23	5814.24	5771.45	5257.02	3334.76	3279.85	2783.21	1200.34	1100.08	928.04	2183.12	2160.55	2642.21	2531.06	2326.21	2186.61	2119.68	892.33	906.23	977.88	1024.97	2862.04	3039.12	3183.75	3257.77	5347.08	5685.18	5536.81	5760.26	5655.53	4506.94	3110.06	1965.96	604.15	650.0	2015.56	3159.91	3705.0	2550.0	1155.0		1395.0	2550.0	3945.0	5100.0	5409.46	5325.21	5132.37	3984.5	2866.11	2780.9	2589.64	1451.29	414.56	337.65	276.13	1158.12	2265.87	2345.12	2539.93	3685.27	3520.75	3210.33	1036.17	785.02	1660.32	1982.74	4176.68	4500.14	6540.58	6295.6	5999.26	6038.41	6496.77	6804.06	7837.73	8314.63	8381.89	8439.13	8197.64	8095.14	6897.2	6976.15	6841.14	6755.83	6155.61	6254.56	6277.44	6225.45	6420.02	6525.13	6709.42	6698.97	6688.52	6641.25	6613.04	6336.11	6346.75	6347.42	6968.59	7032.87	7060.61	8464.41	8365.48	8509.98	
8534.37	8023.18	7591.93	7418.79	7446.1	7662.27	8139.81	8682.59	8782.51	8164.37	7591.11	7282.85	7150.0	7240.71	7591.11	8051.14	8540.67	8313.29	7912.3	7770.84	7833.83	7320.42	7118.59	7008.21	6990.63	6950.48	6873.07	6726.28	6973.56	7026.65	7016.93	7341.29	7267.48	7819.91	7947.99	7929.92	7349.51	6694.01	6972.04	8087.88	4162.72	3485.44	1850.84	1364.4	1589.97	2140.07	3825.62	4505.91	4447.49	4399.69	3891.06	2051.79	1979.79	1537.8	1282.4	1219.38	1610.69	3476.24	3472.63	3978.55	3869.76	3663.64	3517.63	3446.2	1500.18	1310.62	1197.59	1148.59	1590.92	1737.31	1870.76	1940.94	3977.0	4309.32	4162.18	4384.09	4262.22	3114.89	1722.94	607.89	880.64	2010.36	3404.05	4551.76	5100.0	3945.0	2550.0	1395.0		1155.0	2550.0	3705.0	4017.19	3932.54	3740.27	2594.83	1484.8	1398.2	1212.08	278.62	1129.8	1204.18	1397.72	2535.18	3654.21	3734.99	3929.77	5077.56	4908.61	4594.83	2378.64	2075.56	475.85	713.04	2792.84	3116.72	7212.49	6848.16	6173.93	6050.67	6100.8	6271.27	7023.33	7419.72	7500.63	7569.36	7379.37	7284.5	6378.81	6469.74	6416.36	6347.32	6174.45	6278.92	6394.46	6365.37	6968.76	7070.86	7322.13	7331.6	7264.7	7192.17	7151.51	6408.69	6386.53	6370.8	6509.36	6546.25	6560.11	7610.77	7528.43	7647.75	
8023.09	7652.61	7420.41	7424.28	7665.51	8042.54	8686.92	9340.77	9501.38	8782.51	8054.7	7591.11	7244.66	7150.0	7286.78	7591.11	9274.49	9042.55	8545.25	8376.32	8446.16	7795.59	7578.96	7324.02	7276.47	7224.64	6966.44	6791.07	6875.05	6896.48	6872.64	7021.13	6913.87	7341.41	7434.77	7428.38	6947.03	6704.2	7391.63	8793.82	5282.91	4592.54	2848.87	2216.8	1152.36	1319.86	2746.79	3402.18	3334.76	3279.85	2783.21	1200.34	1100.08	928.04	2183.12	2160.55	2642.21	4593.06	4596.82	5109.43	5002.12	4796.48	4648.79	4576.09	2531.06	2326.21	2186.61	2119.68	892.33	906.23	977.88	1024.97	2862.04	3183.75	3039.12	3257.77	3110.06	1965.96	604.15	650.0	2015.56	3159.91	4556.86	5705.48	6255.0	5100.0	3705.0	2550.0	1155.0		1395.0	2550.0	2866.11	2780.9	2589.64	1451.29	414.56	337.65	276.13	1158.12	2265.87	2345.12	2539.93	3685.27	4806.4	4887.76	5082.45	6231.07	6059.92	5744.67	3520.75	3210.33	1036.17	785.02	1660.32	1982.74	7910.27	7470.73	6540.58	6295.6	5999.26	6038.41	6496.77	6804.06	6897.2	6976.15	6841.14	6755.83	6155.61	6254.56	6277.44	6225.45	6420.02	6525.13	6709.42	6698.97	7585.97	7683.75	7976.92	8000.08	7895.01	7806.17	7757.56	6688.52	6641.25	6613.04	6336.11	6346.75	6347.42	7032.87	6968.59	7060.61	
7591.93	7418.79	7446.1	7662.27	8139.81	8682.59	9490.7	10250.34	10471.15	9658.1	8782.51	8164.37	7591.11	7282.85	7150.0	7240.71	10261.7	10027.58	9439.23	9244.88	9320.63	8540.67	8313.29	7912.3	7833.83	7770.84	7320.42	7118.59	7008.21	6990.63	6950.48	6873.07	6726.28	6973.56	7016.93	7026.65	6694.01	6972.04	8087.88	9758.24	6651.0	5953.15	4162.72	3485.44	1850.84	1364.4	1589.97	2140.07	2051.79	1979.79	1537.8	1282.4	1219.38	1610.69	3476.24	3472.63	3978.55	5960.62	5969.63	6486.01	6380.01	6175.09	6026.46	5953.0	3869.76	3663.64	3517.63	3446.2	1500.18	1310.62	1197.59	1148.59	1590.92	1870.76	1737.31	1940.94	1722.94	607.89	880.64	2010.36	3404.05	4551.76	5950.17	7099.33	7650.0	6495.0	5100.0	3945.0	2550.0	1395.0		1155.0	1484.8	1398.2	1212.08	278.62	1129.8	1204.18	1397.72	2535.18	3654.21	3734.99	3929.77	5077.56	6199.6	6281.34	6475.93	7625.03	7452.24	7135.96	4908.61	4594.83	2378.64	2075.56	475.85	713.04	8884.12	8377.89	7212.49	6848.16	6173.93	6050.67	6100.8	6271.27	6378.81	6469.74	6416.36	6347.32	6174.45	6278.92	6394.46	6365.37	6968.76	7070.86	7322.13	7331.6	8485.77	8577.55	8907.48	8943.82	8802.58	8698.96	8643.27	7264.7	7192.17	7151.51	6408.69	6386.53	6370.8	6546.25	6509.36	6560.11	
7420.41	7424.28	7665.51	8042.54	8686.92	9340.77	10255.24	11082.53	11343.68	10471.15	9501.38	8782.51	8054.7	7591.11	7244.66	7150.0	11147.48	10913.28	10266.75	10056.59	10135.74	9274.49	9042.55	8545.25	8446.16	8376.32	7795.59	7578.96	7324.02	7276.47	7224.64	6966.44	6791.07	6875.05	6872.64	6896.48	6704.2	7391.63	8793.82	10631.62	7791.48	7090.39	5282.91	4592.54	2848.87	2216.8	1152.36	1319.86	1200.34	1100.08	928.04	2183.12	2160.55	2642.21	4593.06	4596.82	5109.43	7101.51	7113.27	7631.27	7526.04	7321.63	7172.6	7098.81	5002.12	4796.48	4648.79	4576.09	2531.06	2326.21	2186.61	2119.68	892.33	977.88	906.23	1024.97	604.15	650.0	2015.56	3159.91	4556.86	5705.48	7104.4	8253.79	8805.0	7650.0	6255.0	5100.0	3705.0	2550.0	1155.0		414.56	337.65	276.13	1158.12	2265.87	2345.12	2539.93	3685.27	4806.4	4887.76	5082.45	6231.07	7353.49	7435.44	7629.96	8779.31	8605.5	8288.62	6059.92	5744.67	3520.75	3210.33	1036.17	785.02	9765.78	9219.22	7910.27	7470.73	6540.58	6295.6	5999.26	6038.41	6155.61	6254.56	6277.44	6225.45	6420.02	6525.13	6709.42	6698.97	7585.97	7683.75	7976.92	8000.08	9321.06	9407.86	9759.67	9804.65	9640.09	9527.39	9467.43	7895.01	7806.17	7757.56	6688.52	6641.25	6613.04	6346.75	6336.11	6347.42	
7688.0	7736.76	8021.41	8423.79	9087.67	9750.27	10669.28	11496.98	11757.19	10885.71	9914.05	9189.45	8446.9	7962.3	7577.4	7440.13	11560.42	11326.19	10681.23	10471.15	10550.29	9687.78	9455.71	8953.4	8852.84	8782.51	8189.49	7971.4	7696.96	7644.74	7591.11	7299.84	7119.07	7164.36	7150.0	7177.48	7020.47	7779.28	9206.11	11045.03	8135.56	7437.95	5643.49	4959.92	3242.79	2623.62	1478.98	1473.42	1348.76	1243.5	1230.13	2585.45	2558.18	3028.76	4955.29	4954.52	5462.47	7445.16	7453.54	7969.24	7862.89	7657.73	7509.34	7436.07	5353.95	5147.87	5001.5	4929.75	2917.12	2713.93	2577.75	2512.91	1165.94	1131.2	1111.4	1154.14	588.78	1048.22	2363.13	3493.06	4881.3	6025.71	7421.24	8568.66	9111.49	7957.07	6563.23	5409.46	4017.19	2866.11	1484.8	414.56		87.28	277.15	1427.03	2550.0	2633.14	2827.01	3977.01	5100.0	5183.07	5377.01	6527.01	7650.0	7733.05	7927.01	9077.0	8898.12	8579.13	6348.57	6030.03	3799.62	3482.24	1254.95	946.47	9838.15	9272.67	7902.59	7433.7	6412.31	6127.2	5726.2	5729.76	5848.82	5949.32	5992.35	5945.34	6250.92	6355.5	6561.89	6557.99	7546.15	7641.69	7950.7	7979.5	9371.22	9455.34	9817.02	9866.24	9690.44	9573.61	9511.74	7859.03	7763.94	7712.36	6529.1	6473.69	6441.48	6045.11	6041.44	6042.35	
7664.15	7700.68	7972.05	8365.39	9020.7	9678.03	10592.33	11417.25	11675.87	10806.7	9839.0	9118.96	8383.98	7907.66	7535.33	7410.24	11478.57	11244.33	10601.59	10392.14	10471.15	9612.0	9380.09	8882.11	8782.51	8712.49	8125.8	7908.36	7641.66	7591.11	7538.12	7257.53	7078.36	7134.64	7123.48	7150.0	6983.19	7718.28	9131.47	10963.61	8049.1	7351.32	5556.36	4872.66	3156.44	2539.42	1434.6	1469.55	1345.1	1240.02	1190.74	2500.28	2472.32	2941.9	4868.11	4867.45	5375.56	7358.71	7367.28	7883.12	7776.83	7571.71	7423.28	7349.97	5267.08	5061.01	4914.59	4842.8	2830.24	2627.16	2491.24	2426.58	1132.85	1124.44	1093.19	1152.78	605.48	963.23	2276.18	3406.94	4795.87	5940.67	7336.54	8484.16	9027.72	7873.2	6479.18	5325.21	3932.54	2780.9	1398.2	337.65	87.28		194.83	1344.12	2467.15	2550.0	2744.06	3894.04	5017.07	5100.0	5294.03	6444.03	7567.05	7650.0	7844.02	8994.02	8815.6	8496.8	6266.25	5948.0	3717.8	3400.99	1176.06	871.7	9786.53	9224.27	7865.19	7401.9	6399.31	6123.23	5748.58	5762.37	5880.89	5980.96	6018.16	5969.74	6247.16	6351.89	6553.26	6547.87	7514.93	7610.93	7916.88	7944.59	9323.42	9408.03	9768.01	9816.49	9642.65	9526.54	9465.0	7827.12	7733.24	7682.24	6523.18	6469.63	6438.35	6075.71	6070.0	6073.96	
7692.94	7700.41	7937.65	8305.8	8935.11	9575.03	10472.4	11286.33	11538.16	10678.78	9726.19	9021.99	8311.03	7858.83	7520.15	7425.04	11338.54	11104.25	10471.15	10264.26	10342.73	9496.58	9265.25	8782.51	8686.14	8617.15	8050.62	7835.2	7591.11	7545.26	7494.02	7241.89	7066.89	7150.0	7146.37	7170.62	6980.33	7651.31	9020.25	10825.55	7861.41	7164.54	5373.66	4692.64	2992.6	2390.85	1428.3	1554.5	1431.85	1328.45	1201.04	2345.83	2313.03	2773.08	4686.21	4684.06	5190.62	7171.0	7178.84	7694.15	7587.65	7382.41	7234.12	7160.93	5081.83	4875.71	4729.69	4658.2	2661.3	2459.67	2326.48	2263.59	1159.74	1208.3	1154.34	1246.54	742.46	816.24	2091.95	3218.11	4605.02	5749.02	7144.32	8291.64	8834.34	7679.93	6286.11	5132.37	3740.27	2589.64	1212.08	276.13	277.15	194.83		1150.0	2273.02	2356.07	2550.0	3700.0	4823.01	4906.03	5100.0	6250.0	7373.01	7456.02	7650.0	8800.0	8621.31	8302.41	6071.85	5753.48	3523.19	3206.24	981.53	680.07	9619.38	9061.92	7720.55	7266.96	6299.71	6041.86	5724.57	5762.32	5879.49	5978.43	6001.87	5950.21	6166.13	6271.12	6462.2	6453.87	7380.98	7477.78	7778.34	7804.17	9161.96	9247.3	9604.69	9652.07	9481.17	9366.16	9305.14	7691.88	7600.16	7550.2	6437.58	6387.88	6358.5	6070.63	6060.12	6071.29	
7855.65	7692.94	7724.72	7937.65	8404.54	8935.11	9726.57	10472.4	10683.76	9884.65	9026.47	8422.07	7862.36	7560.51	7427.06	7509.74	10471.15	10237.23	9662.94	9472.04	9547.03	8782.51	8556.07	8168.54	8092.45	8030.24	7591.11	7390.32	7285.77	7268.75	7228.76	7150.0	7002.31	7241.89	7282.18	7292.91	6967.96	7246.03	8334.42	9971.21	6733.72	6041.73	4275.8	3613.55	2055.93	1618.04	1782.2	2276.7	2179.01	2098.31	1697.06	1528.33	1457.12	1806.24	3595.62	3584.48	4080.44	6043.69	6048.04	6560.68	6453.29	6247.6	6100.0	6027.34	3970.2	3764.31	3621.12	3551.6	1698.53	1520.69	1421.27	1379.8	1735.66	1983.05	1860.11	2049.11	1755.35	742.46	1020.42	2091.95	3465.0	4605.02	5998.02	7144.32	7684.99	6530.79	5137.47	3984.5	2594.83	1451.29	278.62	1158.12	1427.03	1344.12	1150.0		1123.04	1206.13	1400.0	2550.0	3673.01	3756.04	3950.0	5100.0	6223.01	6306.03	6500.0	7650.0	7471.51	7152.8	4922.29	4604.35	2374.74	2059.73	234.31	538.52	8722.03	8203.07	7000.94	6621.61	5912.49	5779.79	5822.97	5997.61	6104.61	6195.13	6139.22	6069.8	5903.73	6008.33	6128.83	6101.23	6741.42	6842.9	7102.11	7114.25	8309.3	8399.74	8736.27	8775.25	8626.99	8520.71	8463.78	7040.06	6964.55	6922.47	6140.44	6116.58	6100.05	6270.96	6233.18	6285.34	
8177.57	7858.74	7688.0	7736.76	8021.41	8423.79	9087.67	9750.27	9914.05	9189.45	8446.9	7962.3	7577.4	7440.13	7515.9	7766.46	9687.78	9455.71	8953.4	8782.51	8852.84	8189.49	7971.4	7696.96	7644.74	7591.11	7299.84	7119.07	7164.36	7177.48	7150.0	7246.54	7129.09	7511.18	7591.11	7589.16	7145.75	7020.47	7779.28	9206.11	5643.49	4959.92	3242.79	2623.62	1478.98	1473.42	2619.94	3234.74	3155.75	3090.84	2618.78	1348.76	1243.5	1230.13	2585.45	2558.18	3028.76	4955.29	4954.52	5462.47	5353.95	5147.87	5001.5	4929.75	2917.12	2713.93	2577.75	2512.91	1165.94	1111.4	1131.2	1154.14	2685.93	2986.54	2847.81	3058.48	2848.5	1732.36	588.78	1048.22	2363.13	3493.06	4881.3	6025.71	6563.23	5409.46	4017.19	2866.11	1484.8	414.56	1129.8	2265.87	2550.0	2467.15	2273.02	1123.04		87.28	277.15	1427.03	2550.0	2633.14	2827.01	3977.01	5100.0	5183.07	5377.01	6527.01	6348.57	6030.03	3799.62	3482.24	1254.95	946.47	1310.61	1634.2	7902.59	7433.7	6412.31	6127.2	5726.2	5729.76	6120.95	6412.7	6507.55	6587.97	6462.43	6379.01	5848.82	5949.32	5992.35	5945.34	6250.92	6355.5	6561.89	6557.99	7546.15	7641.69	7950.7	7979.5	7859.03	7763.94	7712.36	6529.1	6473.69	6441.48	6041.44	6045.11	6042.35	6647.05	6585.88	6673.25	
8181.06	7850.22	7664.15	7700.68	7972.05	8365.39	9020.7	9678.03	9839.0	9118.96	8383.98	7907.66	7535.33	7410.24	7501.75	7765.13	9612.0	9380.09	8882.11	8712.49	8782.51	8125.8	7908.36	7641.66	7591.11	7538.12	7257.53	7078.36	7134.64	7150.0	7123.48	7233.25	7118.24	7511.07	7594.06	7591.11	7138.84	6983.19	7718.28	9131.47	5556.36	4872.66	3156.44	2539.42	1434.6	1469.55	2675.46	3297.8	3220.59	3157.21	2680.66	1345.1	1240.02	1190.74	2500.28	2472.32	2941.9	4868.11	4867.45	5375.56	5267.08	5061.01	4914.59	4842.8	2830.24	2627.16	2491.24	2426.58	1132.85	1093.19	1124.44	1152.78	2749.81	3054.09	2914.3	3126.42	2925.27	1803.72	605.48	963.23	2276.18	3406.94	4795.87	5940.67	6479.18	5325.21	3932.54	2780.9	1398.2	337.65	1204.18	2345.12	2633.14	2550.0	2356.07	1206.13	87.28		194.83	1344.12	2467.15	2550.0	2744.06	3894.04	5017.07	5100.0	5294.03	6444.03	6266.25	5948.0	3717.8	3400.99	1176.06	871.7	1396.14	1719.87	7865.19	7401.9	6399.31	6123.23	5748.58	5762.37	6176.26	6474.63	6568.7	6648.47	6518.92	6434.74	5880.89	5980.96	6018.16	5969.74	6247.16	6351.89	6553.26	6547.87	7514.93	7610.93	7916.88	7944.59	7827.12	7733.24	7682.24	6523.18	6469.63	6438.35	6070.0	6075.71	6073.96	6706.52	6644.02	6733.39	
8268.09	7912.73	7692.94	7700.41	7937.65	8305.8	8935.11	9575.03	9726.19	9021.99	8311.03	7858.83	7520.15	7425.04	7552.3	7842.59	9496.58	9265.25	8782.51	8617.15	8686.14	8050.62	7835.2	7591.11	7545.26	7494.02	7241.89	7066.89	7150.0	7170.62	7146.37	7285.77	7176.1	7591.11	7680.22	7675.27	7205.03	6980.33	7651.31	9020.25	5373.66	4692.64	2992.6	2390.85	1428.3	1554.5	2851.22	3481.63	3406.24	3344.32	2863.56	1431.85	1328.45	1201.04	2345.83	2313.03	2773.08	4686.21	4684.06	5190.62	5081.83	4875.71	4729.69	4658.2	2661.3	2459.67	2326.48	2263.59	1159.74	1154.34	1208.3	1246.54	2934.71	3242.3	3101.61	3314.95	3119.5	1995.31	742.46	816.24	2091.95	3218.11	4605.02	5749.02	6286.11	5132.37	3740.27	2589.64	1212.08	276.13	1397.72	2539.93	2827.01	2744.06	2550.0	1400.0	277.15	194.83		1150.0	2273.02	2356.07	2550.0	3700.0	4823.01	4906.03	5100.0	6250.0	6071.85	5753.48	3523.19	3206.24	981.53	680.07	1587.1	1910.5	7720.55	7266.96	6299.71	6041.86	5724.57	5762.32	6233.79	6550.55	6642.34	6720.21	6579.51	6493.27	5879.49	5978.43	6001.87	5950.21	6166.13	6271.12	6462.2	6453.87	7380.98	7477.78	7778.34	7804.17	7691.88	7600.16	7550.2	6437.58	6387.88	6358.5	6060.12	6070.63	6071.29	6775.32	6709.14	6804.08	
8761.06	8268.09	7855.65	7692.94	7724.72	7937.65	8404.54	8935.11	9026.47	8422.07	7862.36	7560.51	7427.06	7509.74	7842.88	8284.7	8782.51	8556.07	8168.54	8030.24	8092.45	7591.11	7390.32	7285.77	7268.75	7228.76	7150.0	7002.31	7241.89	7292.91	7282.18	7591.11	7513.51	8050.62	8173.76	8157.42	7589.8	6967.96	7246.03	8334.42	4275.8	3613.55	2055.93	1618.04	1782.2	2276.7	3889.81	4555.62	4490.59	4437.07	3937.32	2179.01	2098.31	1697.06	1528.33	1457.12	1806.24	3595.62	3584.48	4080.44	3970.2	3764.31	3621.12	3551.6	1698.53	1520.69	1421.27	1379.8	1735.66	1860.11	1983.05	2049.11	4018.08	4341.66	4196.72	4415.75	4257.49	3119.5	1755.35	742.46	1020.42	2091.95	3465.0	4605.02	5137.47	3984.5	2594.83	1451.29	278.62	1158.12	2535.18	3685.27	3977.01	3894.04	3700.0	2550.0	1427.03	1344.12	1150.0		1123.04	1206.13	1400.0	2550.0	3673.01	3756.04	3950.0	5100.0	4922.29	4604.35	2374.74	2059.73	234.31	538.52	2734.12	3056.55	7000.94	6621.61	5912.49	5779.79	5822.97	5997.61	6772.1	7179.25	7258.35	7325.6	7128.99	7033.14	6104.61	6195.13	6139.22	6069.8	5903.73	6008.33	6128.83	6101.23	6741.42	6842.9	7102.11	7114.25	7040.06	6964.55	6922.47	6140.44	6116.58	6100.05	6233.18	6270.96	6285.34	7364.95	7280.45	7403.08	
9361.89	8755.97	8177.57	7858.74	7688.0	7736.76	8021.41	8423.79	8446.9	7962.3	7577.4	7440.13	7515.9	7766.46	8280.43	8847.89	8189.49	7971.4	7696.96	7591.11	7644.74	7299.84	7119.07	7164.36	7177.48	7150.0	7246.54	7129.09	7511.18	7589.16	7591.11	8046.25	7998.23	8632.07	8782.51	8756.69	8114.28	7145.75	7020.47	7779.28	3242.79	2623.62	1478.98	1473.42	2619.94	3234.74	4954.37	5635.7	5577.04	5528.59	5020.74	3155.75	3090.84	2618.78	1348.76	1243.5	1230.13	2585.45	2558.18	3028.76	2917.12	2713.93	2577.75	2512.91	1165.94	1111.4	1131.2	1154.14	2685.93	2847.81	2986.54	3058.48	5106.27	5437.3	5290.54	5511.95	5374.59	4231.83	2848.5	1732.36	588.78	1048.22	2363.13	3493.06	4017.19	2866.11	1484.8	414.56	1129.8	2265.87	3654.21	4806.4	5100.0	5017.07	4823.01	3673.01	2550.0	2467.15	2273.02	1123.04		87.28	277.15	1427.03	2550.0	2633.14	2827.01	3977.01	3799.62	3482.24	1254.95	946.47	1310.61	1634.2	3855.58	4177.37	6412.31	6127.2	5726.2	5729.76	6120.95	6412.7	7426.16	7900.66	7968.24	8025.8	7786.07	7683.85	6507.55	6587.97	6462.43	6379.01	5848.82	5949.32	5992.35	5945.34	6250.92	6355.5	6561.89	6557.99	6529.1	6473.69	6441.48	6041.44	6045.11	6042.35	6585.88	6647.05	6673.25	8051.58	7953.21	8096.89	
9387.51	8772.49	8181.06	7850.22	7664.15	7700.68	7972.05	8365.39	8383.98	7907.66	7535.33	7410.24	7501.75	7765.13	8293.15	8870.61	8125.8	7908.36	7641.66	7538.12	7591.11	7257.53	7078.36	7134.64	7150.0	7123.48	7233.25	7118.24	7511.07	7591.11	7594.06	8060.58	8015.01	8656.46	8809.12	8782.51	8134.26	7138.84	6983.19	7718.28	3156.44	2539.42	1434.6	1469.55	2675.46	3297.8	5026.24	5709.32	5651.56	5603.86	5095.0	3220.59	3157.21	2680.66	1345.1	1240.02	1190.74	2500.28	2472.32	2941.9	2830.24	2627.16	2491.24	2426.58	1132.85	1093.19	1124.44	1152.78	2749.81	2914.3	3054.09	3126.42	5181.17	5513.22	5366.21	5587.94	5454.61	4310.92	2925.27	1803.72	605.48	963.23	2276.18	3406.94	3932.54	2780.9	1398.2	337.65	1204.18	2345.12	3734.99	4887.76	5183.07	5100.0	4906.03	3756.04	2633.14	2550.0	2356.07	1206.13	87.28		194.83	1344.12	2467.15	2550.0	2744.06	3894.04	3717.8	3400.99	1176.06	871.7	1396.14	1719.87	3939.58	4261.58	6399.31	6123.23	5748.58	5762.37	6176.26	6474.63	7500.08	7977.57	8044.61	8101.69	7859.99	7757.51	6568.7	6648.47	6518.92	6434.74	5880.89	5980.96	6018.16	5969.74	6247.16	6351.89	6553.26	6547.87	6523.18	6469.63	6438.35	6070.0	6075.71	6073.96	6644.02	6706.52	6733.39	8126.84	8027.84	8172.47	
9515.58	8884.33	8268.09	7912.73	7692.94	7700.41	7937.65	8305.8	8311.03	7858.83	7520.15	7425.04	7552.3	7842.59	8398.02	8993.68	8050.62	7835.2	7591.11	7494.02	7545.26	7241.89	7066.89	7150.0	7170.62	7146.37	7285.77	7176.1	7591.11	7675.27	7680.22	8168.54	8127.54	8782.51	8939.02	8911.04	8252.58	7205.03	6980.33	7651.31	2992.6	2390.85	1428.3	1554.5	2851.22	3481.63	5217.65	5901.87	5844.64	5797.34	5287.96	3406.24	3344.32	2863.56	1431.85	1328.45	1201.04	2345.83	2313.03	2773.08	2661.3	2459.67	2326.48	2263.59	1159.74	1154.34	1208.3	1246.54	2934.71	3101.61	3242.3	3314.95	5374.48	5707.01	5559.9	5781.77	5649.45	4505.69	3119.5	1995.31	742.46	816.24	2091.95	3218.11	3740.27	2589.64	1212.08	276.13	1397.72	2539.93	3929.77	5082.45	5377.01	5294.03	5100.0	3950.0	2827.01	2744.06	2550.0	1400.0	277.15	194.83		1150.0	2273.02	2356.07	2550.0	3700.0	3523.19	3206.24	981.53	680.07	1587.1	1910.5	4132.72	4454.49	6299.71	6041.86	5724.57	5762.32	6233.79	6550.55	7612.79	8100.62	8165.66	8221.07	7972.61	7869.24	6642.34	6720.21	6579.51	6493.27	5879.49	5978.43	6001.87	5950.21	6166.13	6271.12	6462.2	6453.87	6437.58	6387.88	6358.5	6060.12	6070.63	6071.29	6709.14	6775.32	6804.08	8243.94	8142.79	8290.69	
10237.49	9515.58	8761.06	8268.09	7855.65	7692.94	7724.72	7937.65	7862.36	7560.51	7427.06	7509.74	7842.88	8284.7	8992.51	9689.23	7591.11	7390.32	7285.77	7228.76	7268.75	7150.0	7002.31	7241.89	7292.91	7282.18	7591.11	7513.51	8050.62	8157.42	8173.76	8782.51	8768.03	9496.58	9674.48	9638.74	8925.39	7589.8	6967.96	7246.03	2055.93	1618.04	1782.2	2276.7	3889.81	4555.62	6331.67	7023.46	6970.49	6926.56	6413.27	4490.59	4437.07	3937.32	2179.01	2098.31	1697.06	1528.33	1457.12	1806.24	1698.53	1520.69	1421.27	1379.8	1735.66	1860.11	1983.05	2049.11	4018.08	4196.72	4341.66	4415.75	6502.5	6839.04	6691.04	6914.03	6795.31	5649.45	4257.49	3119.5	1755.35	742.46	1020.42	2091.95	2594.83	1451.29	278.62	1158.12	2535.18	3685.27	5077.56	6231.07	6527.01	6444.03	6250.0	5100.0	3977.01	3894.04	3700.0	2550.0	1427.03	1344.12	1150.0		1123.04	1206.13	1400.0	2550.0	2374.74	2059.73	234.31	538.52	2734.12	3056.55	5282.13	5603.57	5912.49	5779.79	5822.97	5997.61	6772.1	7179.25	8415.51	8950.8	9005.88	9052.85	8772.68	8665.59	7258.35	7325.6	7128.99	7033.14	6104.61	6195.13	6139.22	6069.8	5903.73	6008.33	6128.83	6101.23	6140.44	6116.58	6100.05	6233.18	6270.96	6285.34	7280.45	7364.95	7403.08	9064.49	8953.35	9116.5	
11019.18	10226.41	9361.89	8755.97	8177.57	7858.74	7688.0	7736.76	7577.4	7440.13	7515.9	7766.46	8280.43	8847.89	9677.16	10452.63	7299.84	7119.07	7164.36	7150.0	7177.48	7246.54	7129.09	7511.18	7589.16	7591.11	8046.25	7998.23	8632.07	8756.69	8782.51	9485.62	9493.39	10276.79	10471.15	10429.23	9676.07	8114.28	7145.75	7020.47	1478.98	1473.42	2619.94	3234.74	4954.37	5635.7	7431.86	8127.96	8077.93	8036.31	7520.81	5577.04	5528.59	5020.74	3155.75	3090.84	2618.78	1348.76	1243.5	1230.13	1165.94	1111.4	1131.2	1154.14	2685.93	2847.81	2986.54	3058.48	5106.27	5290.54	5437.3	5511.95	7611.75	7950.72	7802.22	8025.83	7916.03	6769.1	5374.59	4231.83	2848.5	1732.36	588.78	1048.22	1484.8	414.56	1129.8	2265.87	3654.21	4806.4	6199.6	7353.49	7650.0	7567.05	7373.01	6223.01	5100.0	5017.07	4823.01	3673.01	2550.0	2467.15	2273.02	1123.04		87.28	277.15	1427.03	1254.95	946.47	1310.61	1634.2	3855.58	4177.37	6404.55	6725.71	5726.2	5729.76	6120.95	6412.7	7426.16	7900.66	9264.69	9834.78	9881.42	9921.21	9617.05	9507.7	7968.24	8025.8	7786.07	7683.85	6507.55	6587.97	6462.43	6379.01	5848.82	5949.32	5992.35	5945.34	6041.44	6045.11	6042.35	6585.88	6647.05	6673.25	7953.21	8051.58	8096.89	9923.6	9805.02	9979.58	
11060.11	10261.2	9387.51	8772.49	8181.06	7850.22	7664.15	7700.68	7535.33	7410.24	7501.75	7765.13	8293.15	8870.61	9709.86	10492.06	7257.53	7078.36	7134.64	7123.48	7150.0	7233.25	7118.24	7511.07	7591.11	7594.06	8060.58	8015.01	8656.46	8782.51	8809.12	9520.03	9529.77	10317.82	10513.63	10471.15	9714.64	8134.26	7138.84	6983.19	1434.6	1469.55	2675.46	3297.8	5026.24	5709.32	7508.2	8205.02	8155.55	8114.4	7598.5	5651.56	5603.86	5095.0	3220.59	3157.21	2680.66	1345.1	1240.02	1190.74	1132.85	1093.19	1124.44	1152.78	2749.81	2914.3	3054.09	3126.42	5181.17	5366.21	5513.22	5587.94	7689.78	8029.24	7880.63	8104.36	7997.09	6849.79	5454.61	4310.92	2925.27	1803.72	605.48	963.23	1398.2	337.65	1204.18	2345.12	3734.99	4887.76	6281.34	7435.44	7733.05	7650.0	7456.02	6306.03	5183.07	5100.0	4906.03	3756.04	2633.14	2550.0	2356.07	1206.13	87.28		194.83	1344.12	1176.06	871.7	1396.14	1719.87	3939.58	4261.58	6488.18	6809.49	5748.58	5762.37	6176.26	6474.63	7500.08	7977.57	9346.72	9918.04	9964.37	10003.89	9698.84	9589.42	8044.61	8101.69	7859.99	7757.51	6568.7	6648.47	6518.92	6434.74	5880.89	5980.96	6018.16	5969.74	6070.0	6075.71	6073.96	6644.02	6706.52	6733.39	8027.84	8126.84	8172.47	10005.93	9887.08	10062.05	
11213.22	10404.63	9515.58	8884.33	8268.09	7912.73	7692.94	7700.41	7520.15	7425.04	7552.3	7842.59	8398.02	8993.68	9849.94	10642.9	7241.89	7066.89	7150.0	7146.37	7170.62	7285.77	7176.1	7591.11	7675.27	7680.22	8168.54	8127.54	8782.51	8911.04	8939.02	9662.94	9675.87	10471.15	10669.17	10625.84	9864.2	8252.58	7205.03	6980.33	1428.3	1554.5	2851.22	3481.63	5217.65	5901.87	7702.16	8399.25	8349.98	8308.96	7792.95	5844.64	5797.34	5287.96	3406.24	3344.32	2863.56	1431.85	1328.45	1201.04	1159.74	1154.34	1208.3	1246.54	2934.71	3101.61	3242.3	3314.95	5374.48	5559.9	5707.01	5781.77	7884.32	8223.9	8075.27	8299.03	8191.84	7044.59	5649.45	4505.69	3119.5	1995.31	742.46	816.24	1212.08	276.13	1397.72	2539.93	3929.77	5082.45	6475.93	7629.96	7927.01	7844.02	7650.0	6500.0	5377.01	5294.03	5100.0	3950.0	2827.01	2744.06	2550.0	1400.0	277.15	194.83		1150.0	981.53	680.07	1587.1	1910.5	4132.72	4454.49	6681.68	7002.86	5724.57	5762.32	6233.79	6550.55	7612.79	8100.62	9489.68	10066.54	10111.39	10149.66	9840.73	9731.01	8165.66	8221.07	7972.61	7869.24	6642.34	6720.21	6579.51	6493.27	5879.49	5978.43	6001.87	5950.21	6060.12	6070.63	6071.29	6709.14	6775.32	6804.08	8142.79	8243.94	8290.69	10150.12	10030.08	10206.89	
12077.3	11213.22	10237.49	9515.58	8761.06	8268.09	7855.65	7692.94	7427.06	7509.74	7842.88	8284.7	8992.51	9689.23	10640.71	11494.84	7150.0	7002.31	7241.89	7282.18	7292.91	7591.11	7513.51	8050.62	8157.42	8173.76	8782.51	8768.03	9496.58	9638.74	9674.48	10471.15	10502.8	11338.54	11549.28	11500.97	10710.98	8925.39	7589.8	6967.96	1782.2	2276.7	3889.81	4555.62	6331.67	7023.46	8834.84	9534.64	9487.62	9448.39	8930.99	6970.49	6926.56	6413.27	4490.59	4437.07	3937.32	2179.01	2098.31	1697.06	1735.66	1860.11	1983.05	2049.11	4018.08	4196.72	4341.66	4415.75	6502.5	6691.04	6839.04	6914.03	9023.58	9364.83	9215.88	9440.01	9339.77	8191.84	6795.31	5649.45	4257.49	3119.5	1755.35	742.46	278.62	1158.12	2535.18	3685.27	5077.56	6231.07	7625.03	8779.31	9077.0	8994.02	8800.0	7650.0	6527.01	6444.03	6250.0	5100.0	3977.01	3894.04	3700.0	2550.0	1427.03	1344.12	1150.0		234.31	538.52	2734.12	3056.55	5282.13	5603.57	7831.44	8152.45	5822.97	5997.61	6772.1	7179.25	8415.51	8950.8	10430.01	11031.64	11069.47	11101.75	10775.09	10664.19	9005.88	9052.85	8772.68	8665.59	7258.35	7325.6	7128.99	7033.14	6104.61	6195.13	6139.22	6069.8	6233.18	6270.96	6285.34	7280.45	7364.95	7403.08	8953.35	9064.49	9116.5	11094.71	10969.28	11154.4	
12035.85	11187.08	10233.51	9533.03	8808.67	8343.36	7966.53	7832.6	7579.91	7633.72	7930.1	8342.4	9017.93	9691.37	10619.06	11456.64	7302.22	7150.0	7364.16	7396.87	7409.99	7675.08	7591.11	8104.34	8206.52	8220.46	8803.2	8782.51	9493.94	9632.8	9666.6	10444.66	10471.15	11295.77	11502.84	11455.99	10673.84	8932.32	7658.13	7107.21	1809.45	2241.6	3782.92	4435.89	6192.89	6880.0	8683.22	9380.65	9331.5	9290.46	8774.47	6824.05	6777.61	6267.13	4366.16	4308.63	3816.73	2136.36	2048.8	1692.01	1715.93	1817.94	1929.61	1991.12	3893.44	4066.87	4209.86	4283.29	6354.4	6540.56	6687.85	6762.66	8865.83	9205.26	9056.68	9280.39	9169.88	8023.44	6629.45	5486.68	4100.93	2972.65	1640.32	758.06	475.85	1036.17	2378.64	3520.75	4908.61	6059.92	7452.24	8605.5	8898.12	8815.6	8621.31	7471.51	6348.57	6266.25	6071.85	4922.29	3799.62	3717.8	3523.19	2374.74	1254.95	1176.06	981.53	234.31		323.88	2550.0	2870.44	5100.0	5420.23	7650.0	7970.16	5644.45	5802.39	6549.52	6951.26	8181.54	8716.5	10197.25	10799.98	10837.44	10869.43	10542.08	10431.15	8771.59	8818.6	8538.79	8431.75	7031.11	7099.02	6905.9	6810.65	5910.77	6002.45	5956.25	5889.01	6045.86	6080.37	6093.13	7055.98	7139.36	7176.93	8719.31	8830.34	8882.3	10862.06	10736.43	10921.87	
11827.77	10996.42	10069.32	9395.81	8711.56	8285.3	7962.18	7875.04	7645.39	7650.57	7889.96	8259.62	8891.35	9535.0	10433.86	11252.39	7366.99	7207.11	7378.69	7399.3	7416.18	7630.53	7537.43	8016.39	8112.13	8122.8	8670.78	8642.25	9331.93	9466.71	9498.16	10254.02	10274.67	11086.59	11289.61	11244.35	10471.15	8782.51	7591.11	7150.0	1722.68	2064.99	3517.39	4157.46	5897.58	6581.02	8378.3	9074.14	9023.71	8981.62	8466.55	6523.04	6474.94	5966.57	4083.85	4023.08	3538.71	1952.05	1857.55	1565.25	1569.24	1640.12	1735.66	1790.6	3611.79	3780.54	3921.73	3994.53	6052.48	6236.99	6383.77	6458.43	8557.16	8895.5	8747.14	8970.58	8854.73	7709.17	6316.74	5176.03	3794.9	2675.12	1380.67	725.43	713.04	785.02	2075.56	3210.33	4594.83	5744.67	7135.96	8288.62	8579.13	8496.8	8302.41	7152.8	6030.03	5948.0	5753.48	4604.35	3482.24	3400.99	3206.24	2059.73	946.47	871.7	680.07	538.52	323.88		2230.56	2550.0	4780.26	5100.0	7330.17	7650.0	5553.23	5673.81	6343.72	6724.01	7915.31	8440.24	9902.85	10500.86	10539.72	10572.91	10249.02	10138.29	8497.55	8546.44	8273.45	8167.16	6807.06	6877.64	6697.95	6604.92	5785.21	5879.39	5854.91	5792.45	5934.85	5961.96	5971.01	6842.88	6921.89	6957.22	8451.77	8560.67	8611.5	10567.05	10442.46	10626.29	
10233.51	9533.03	8808.67	8343.36	7966.53	7832.6	7895.8	8129.74	8064.03	7743.17	7579.91	7633.72	7930.1	8342.4	9017.93	9691.37	7793.77	7591.11	7469.03	7406.52	7448.1	7302.22	7150.0	7364.16	7409.99	7396.87	7675.08	7591.11	8104.34	8206.52	8220.46	8803.2	8782.51	9493.94	9666.6	9632.8	8932.32	7658.13	7107.21	7441.97	2289.69	1837.79	1809.45	2241.6	3782.92	4435.89	6192.89	6880.0	6824.05	6777.61	6267.13	4366.16	4308.63	3816.73	2136.36	2048.8	1692.01	1752.06	1684.0	2040.44	1932.59	1753.68	1651.94	1608.59	1715.93	1817.94	1929.61	1991.12	3893.44	4066.87	4209.86	4283.29	6354.4	6687.85	6540.56	6762.66	6629.45	5486.68	4100.93	2972.65	1640.32	758.06	1252.46	2306.0	2792.84	1660.32	475.85	1036.17	2378.64	3520.75	4908.61	6059.92	6348.57	6266.25	6071.85	4922.29	3799.62	3717.8	3523.19	2374.74	1254.95	1176.06	981.53	234.31	1310.61	1396.14	1587.1	2734.12	2550.0	2230.56		323.88	2550.0	2870.44	5100.0	5420.23	5816.22	5658.66	5644.45	5802.39	6549.52	6951.26	8181.54	8716.5	8771.59	8818.6	8538.79	8431.75	7031.11	7099.02	6905.9	6810.65	5910.77	6002.45	5956.25	5889.01	5782.99	5887.93	6022.24	5998.41	6026.85	5998.03	5979.07	6045.86	6080.37	6093.13	7055.98	7139.36	7176.93	8830.34	8719.31	8882.3	
10069.32	9395.81	8711.56	8285.3	7962.18	7875.04	7994.14	8269.9	8225.42	7864.24	7645.39	7650.57	7889.96	8259.62	8891.35	9535.0	7957.7	7750.93	7591.61	7518.27	7562.93	7366.99	7207.11	7378.69	7416.18	7399.3	7630.53	7537.43	8016.39	8112.13	8122.8	8670.78	8642.25	9331.93	9498.16	9466.71	8782.51	7591.11	7150.0	7591.11	2562.86	2061.28	1722.68	2064.99	3517.39	4157.46	5897.58	6581.02	6523.04	6474.94	5966.57	4083.85	4023.08	3538.71	1952.05	1857.55	1565.25	1987.01	1928.93	2320.02	2210.2	2022.99	1910.5	1860.45	1569.24	1640.12	1735.66	1790.6	3611.79	3780.54	3921.73	3994.53	6052.48	6383.77	6236.99	6458.43	6316.74	5176.03	3794.9	2675.12	1380.67	725.43	1554.43	2627.02	3116.72	1982.74	713.04	785.02	2075.56	3210.33	4594.83	5744.67	6030.03	5948.0	5753.48	4604.35	3482.24	3400.99	3206.24	2059.73	946.47	871.7	680.07	538.52	1634.2	1719.87	1910.5	3056.55	2870.44	2550.0	323.88		2230.56	2550.0	4780.26	5100.0	5868.47	5672.46	5553.23	5673.81	6343.72	6724.01	7915.31	8440.24	8497.55	8546.44	8273.45	8167.16	6807.06	6877.64	6697.95	6604.92	5785.21	5879.39	5854.91	5792.45	5797.1	5902.34	6058.26	6040.28	6051.86	6015.19	5992.33	5934.85	5961.96	5971.01	6842.88	6921.89	6957.22	8560.67	8451.77	8611.5	
8808.67	8343.36	7966.53	7832.6	7895.8	8129.74	8615.49	9156.45	9252.41	8639.71	8064.03	7743.17	7579.91	7633.72	7930.1	8342.4	9009.35	8782.51	8387.31	8246.47	8309.35	7793.77	7591.11	7469.03	7448.1	7406.52	7302.22	7150.0	7364.16	7409.99	7396.87	7675.08	7591.11	8104.34	8220.46	8206.52	7658.13	7107.21	7441.97	8559.11	4496.25	3838.64	2289.69	1837.79	1809.45	2241.6	3782.92	4435.89	4366.16	4308.63	3816.73	2136.36	2048.8	1692.01	1752.06	1684.0	2040.44	3818.43	3805.15	4297.55	4186.93	3981.32	3839.19	3770.35	1932.59	1753.68	1651.94	1608.59	1715.93	1817.94	1929.61	1991.12	3893.44	4209.86	4066.87	4283.29	4100.93	2972.65	1640.32	758.06	1252.46	2306.0	3667.65	4802.67	5327.14	4176.68	2792.84	1660.32	475.85	1036.17	2378.64	3520.75	3799.62	3717.8	3523.19	2374.74	1254.95	1176.06	981.53	234.31	1310.61	1396.14	1587.1	2734.12	3855.58	3939.58	4132.72	5282.13	5100.0	4780.26	2550.0	2230.56		323.88	2550.0	2870.44	6985.84	6586.2	5816.22	5658.66	5644.45	5802.39	6549.52	6951.26	7031.11	7099.02	6905.9	6810.65	5910.77	6002.45	5956.25	5889.01	5782.99	5887.93	6022.24	5998.41	6704.75	6805.22	7075.51	7091.29	7007.03	6927.26	6883.11	6026.85	5998.03	5979.07	6045.86	6080.37	6093.13	7139.36	7055.98	7176.93	
8711.56	8285.3	7962.18	7875.04	7994.14	8269.9	8798.93	9368.63	9479.87	8841.17	8225.42	7864.24	7645.39	7650.57	7889.96	8259.62	9240.27	9012.01	8592.15	8444.18	8508.88	7957.7	7750.93	7591.61	7562.93	7518.27	7366.99	7207.11	7378.69	7416.18	7399.3	7630.53	7537.43	8016.39	8122.8	8112.13	7591.11	7150.0	7591.11	8782.51	4813.92	4151.94	2562.86	2061.28	1722.68	2064.99	3517.39	4157.46	4083.85	4023.08	3538.71	1952.05	1857.55	1565.25	1987.01	1928.93	2320.02	4134.11	4122.63	4617.36	4506.94	4301.16	4158.43	4089.16	2210.2	2022.99	1910.5	1860.45	1569.24	1640.12	1735.66	1790.6	3611.79	3921.73	3780.54	3994.53	3794.9	2675.12	1380.67	725.43	1554.43	2627.02	3991.4	5126.52	5650.17	4500.14	3116.72	1982.74	713.04	785.02	2075.56	3210.33	3482.24	3400.99	3206.24	2059.73	946.47	871.7	680.07	538.52	1634.2	1719.87	1910.5	3056.55	4177.37	4261.58	4454.49	5603.57	5420.23	5100.0	2870.44	2550.0	323.88		2230.56	2550.0	7144.55	6720.6	5868.47	5672.46	5553.23	5673.81	6343.72	6724.01	6807.06	6877.64	6697.95	6604.92	5785.21	5879.39	5854.91	5792.45	5797.1	5902.34	6058.26	6040.28	6837.33	6936.35	7220.11	7240.34	7143.7	7058.68	7011.99	6051.86	6015.19	5992.33	5934.85	5961.96	5971.01	6921.89	6842.88	6957.22	
7966.53	7832.6	7895.8	8129.74	8615.49	9156.45	9955.63	10704.84	10917.44	10116.21	9252.41	8639.71	8064.03	7743.17	7579.91	7633.72	10705.09	10471.15	9895.07	9703.46	9778.62	9009.35	8782.51	8387.31	8309.35	8246.47	7793.77	7591.11	7469.03	7448.1	7406.52	7302.22	7150.0	7364.16	7396.87	7409.99	7107.21	7441.97	8559.11	10204.85	6942.25	6252.83	4496.25	3838.64	2289.69	1837.79	1809.45	2241.6	2136.36	2048.8	1692.01	1752.06	1684.0	2040.44	3818.43	3805.15	4297.55	6252.69	6255.2	6766.05	6658.15	6452.24	6305.15	6232.86	4186.93	3981.32	3839.19	3770.35	1932.59	1753.68	1651.94	1608.59	1715.93	1929.61	1817.94	1991.12	1640.32	758.06	1252.46	2306.0	3667.65	4802.67	6191.9	7336.12	7871.59	6718.46	5327.14	4176.68	2792.84	1660.32	475.85	1036.17	1254.95	1176.06	981.53	234.31	1310.61	1396.14	1587.1	2734.12	3855.58	3939.58	4132.72	5282.13	6404.55	6488.18	6681.68	7831.44	7650.0	7330.17	5100.0	4780.26	2550.0	2230.56		323.88	8762.45	8230.48	6985.84	6586.2	5816.22	5658.66	5644.45	5802.39	5910.77	6002.45	5956.25	5889.01	5782.99	5887.93	6022.24	5998.41	6704.75	6805.22	7075.51	7091.29	8334.83	8423.73	8767.18	8808.91	8653.26	8544.14	8485.89	7007.03	6927.26	6883.11	6026.85	5998.03	5979.07	6080.37	6045.86	6093.13	
7962.18	7875.04	7994.14	8269.9	8798.93	9368.63	10195.16	10961.58	11184.07	10367.8	9479.87	8841.17	8225.42	7864.24	7645.39	7650.57	10974.74	10740.62	10150.0	9954.35	10030.41	9240.27	9012.01	8592.15	8508.88	8444.18	7957.7	7750.93	7591.61	7562.93	7518.27	7366.99	7207.11	7378.69	7399.3	7416.18	7150.0	7591.11	8782.51	10471.15	7265.29	6575.2	4813.92	4151.94	2562.86	2061.28	1722.68	2064.99	1952.05	1857.55	1565.25	1987.01	1928.93	2320.02	4134.11	4122.63	4617.36	6575.61	6578.48	7089.61	6981.76	6775.88	6628.73	6556.39	4506.94	4301.16	4158.43	4089.16	2210.2	2022.99	1910.5	1860.45	1569.24	1735.66	1640.12	1790.6	1380.67	725.43	1554.43	2627.02	3991.4	5126.52	6515.46	7659.39	8193.9	7041.04	5650.17	4500.14	3116.72	1982.74	713.04	785.02	946.47	871.7	680.07	538.52	1634.2	1719.87	1910.5	3056.55	4177.37	4261.58	4454.49	5603.57	6725.71	6809.49	7002.86	8152.45	7970.16	7650.0	5420.23	5100.0	2870.44	2550.0	323.88		8980.82	8435.71	7144.55	6720.6	5868.47	5672.46	5553.23	5673.81	5785.21	5879.39	5854.91	5792.45	5797.1	5902.34	6058.26	6040.28	6837.33	6936.35	7220.11	7240.34	8537.96	8625.15	8975.66	9020.25	8856.92	8744.86	8685.22	7143.7	7058.68	7011.99	6051.86	6015.19	5992.33	5961.96	5934.85	5971.01	
15738.32	15166.69	14563.37	14152.4	13765.67	13548.33	13412.7	13410.04	13196.84	13149.12	13230.81	13404.75	13746.16	14123.76	14692.32	15240.69	12918.31	12755.02	12874.25	12869.98	12894.93	12958.91	12831.96	13140.09	13197.89	13189.57	13490.32	13402.71	13877.41	13967.62	13974.91	14458.54	14408.72	15016.93	15153.75	15133.05	14517.95	13459.58	12827.89	12686.77	7150.0	7181.09	7591.11	7854.07	8782.51	9209.22	10471.15	10997.19	10896.0	10810.54	10415.65	9096.56	9001.39	8677.85	7731.56	7628.05	7424.93	7057.74	6953.73	6925.24	6877.88	6837.6	6848.69	6861.43	7415.24	7446.7	7508.0	7545.02	8698.93	8784.02	8879.23	8931.99	10457.63	10691.88	10576.84	10753.54	10354.3	9462.83	8462.18	7733.51	7000.74	6563.08	6278.31	6272.63	6100.8	5999.26	6173.93	6540.58	7212.49	7910.27	8884.12	9765.78	9838.15	9786.53	9619.38	8722.03	7902.59	7865.19	7720.55	7000.94	6412.31	6399.31	6299.71	5912.49	5726.2	5748.58	5724.57	5822.97	5644.45	5553.23	5816.22	5868.47	6985.84	7144.55	8762.45	8980.82		709.01	2550.0	3259.0	5100.0	5809.0	7650.0	8359.0	8329.94	8306.1	7885.83	7784.28	5780.35	5757.48	5338.14	5235.88	3231.42	3211.03	2794.66	2690.51	690.41	691.33	359.91	261.22	540.4	666.21	729.89	2998.77	3147.93	3221.93	5540.6	5690.35	5764.89	8237.45	8087.57	8312.16	
15381.73	14851.33	14304.21	13944.17	13624.54	13465.61	13403.4	13461.44	13278.66	13169.2	13175.91	13289.09	13560.65	13884.42	14393.85	14898.3	13000.16	12827.92	12893.3	12873.79	12903.3	12901.12	12763.55	13020.64	13068.45	13055.53	13299.57	13200.98	13632.38	13714.17	13717.29	14153.56	14093.57	14668.04	14794.82	14777.6	14189.22	13241.58	12741.65	12742.25	7189.05	7150.0	7387.08	7591.11	8394.08	8782.51	9967.81	10471.15	10366.83	10278.72	9900.02	8666.7	8568.85	8273.19	7467.08	7362.29	7203.19	7029.06	6927.23	6952.07	6894.59	6833.66	6829.2	6834.21	7183.32	7196.08	7244.84	7275.89	8286.72	8359.02	8446.44	8495.63	9937.03	10158.84	10048.28	10218.51	9800.88	8945.48	8004.37	7341.62	6714.75	6386.1	6253.85	6377.3	6271.27	6038.41	6050.67	6295.6	6848.16	7470.73	8377.89	9219.22	9272.67	9224.27	9061.92	8203.07	7433.7	7401.9	7266.96	6621.61	6127.2	6123.23	6041.86	5779.79	5729.76	5762.37	5762.32	5997.61	5802.39	5673.81	5658.66	5672.46	6586.2	6720.6	8230.48	8435.71	709.01		1841.0	2550.0	4391.0	5100.0	6941.0	7650.0	7620.96	7597.27	7177.16	7075.48	5071.44	5048.93	4630.0	4527.45	2522.9	2503.95	2089.78	1984.46	124.66	229.92	549.97	619.17	425.4	346.51	320.41	2294.7	2443.31	2516.92	4832.74	4982.42	5056.88	7528.89	7379.03	7603.57	
14563.37	14152.4	13765.67	13548.33	13412.7	13410.04	13539.29	13751.58	13647.86	13383.43	13196.84	13149.12	13230.81	13404.75	13746.16	14123.76	13373.0	13180.55	13108.62	13050.41	13091.19	12918.31	12755.02	12874.25	12894.93	12869.98	12958.91	12831.96	13140.09	13197.89	13189.57	13490.32	13402.71	13877.41	13974.91	13967.62	13459.58	12827.89	12686.77	13052.14	7591.11	7379.34	7150.0	7181.09	7591.11	7854.07	8782.51	9209.22	9096.56	9001.39	8677.85	7731.56	7628.05	7424.93	7057.74	6953.73	6925.24	7269.89	7178.2	7334.39	7254.63	7145.43	7102.39	7087.75	6877.88	6837.6	6848.69	6861.43	7415.24	7446.7	7508.0	7545.02	8698.93	8879.23	8784.02	8931.99	8462.18	7733.51	7000.74	6563.08	6278.31	6272.63	6544.4	6973.01	7023.33	6496.77	6100.8	5999.26	6173.93	6540.58	7212.49	7910.27	7902.59	7865.19	7720.55	7000.94	6412.31	6399.31	6299.71	5912.49	5726.2	5748.58	5724.57	5822.97	6120.95	6176.26	6233.79	6772.1	6549.52	6343.72	5644.45	5553.23	5816.22	5868.47	6985.84	7144.55	2550.0	1841.0		709.01	2550.0	3259.0	5100.0	5809.0	5780.35	5757.48	5338.14	5235.88	3231.42	3211.03	2794.66	2690.51	690.41	691.33	359.91	261.22	1875.17	1910.53	2335.37	2429.53	2143.93	1995.8	1920.84	540.4	666.21	729.89	2998.77	3147.93	3221.93	5690.35	5540.6	5764.89	
14304.21	13944.17	13624.54	13465.61	13403.4	13461.44	13663.05	13932.09	13858.07	13537.38	13278.66	13169.2	13175.91	13289.09	13560.65	13884.42	13585.82	13386.86	13264.33	13191.93	13236.73	13000.16	12827.92	12893.3	12903.3	12873.79	12901.12	12763.55	13020.64	13068.45	13055.53	13299.57	13200.98	13632.38	13717.29	13714.17	13241.58	12741.65	12742.25	13243.31	7861.35	7591.11	7189.05	7150.0	7387.08	7591.11	8394.08	8782.51	8666.7	8568.85	8273.19	7467.08	7362.29	7203.19	7029.06	6927.23	6952.07	7487.54	7400.98	7601.42	7515.03	7390.48	7334.39	7312.95	6894.59	6833.66	6829.2	6834.21	7183.32	7196.08	7244.84	7275.89	8286.72	8446.44	8359.02	8495.63	8004.37	7341.62	6714.75	6386.1	6253.85	6377.3	6792.53	7318.66	7419.72	6804.06	6271.27	6038.41	6050.67	6295.6	6848.16	7470.73	7433.7	7401.9	7266.96	6621.61	6127.2	6123.23	6041.86	5779.79	5729.76	5762.37	5762.32	5997.61	6412.7	6474.63	6550.55	7179.25	6951.26	6724.01	5802.39	5673.81	5658.66	5672.46	6586.2	6720.6	3259.0	2550.0	709.01		1841.0	2550.0	4391.0	5100.0	5071.44	5048.93	4630.0	4527.45	2522.9	2503.95	2089.78	1984.46	124.66	229.92	549.97	619.17	2582.84	2615.52	3040.19	3135.87	2846.27	2697.29	2622.11	425.4	346.51	320.41	2294.7	2443.31	2516.92	4982.42	4832.74	5056.88	
13765.67	13548.33	13412.7	13410.04	13539.29	13751.58	14132.56	14539.19	14538.79	14083.26	13647.86	13383.43	13196.84	13149.12	13230.81	13404.75	14275.73	14063.01	13817.75	13711.12	13765.33	13373.0	13180.55	13108.62	13091.19	13050.41	12918.31	12755.02	12874.25	12894.93	12869.98	12958.91	12831.96	13140.09	13189.57	13197.89	12827.89	12686.77	13052.14	13884.09	8782.51	8387.26	7591.11	7379.34	7150.0	7181.09	7591.11	7854.07	7731.56	7628.05	7424.93	7057.74	6953.73	6925.24	7269.89	7178.2	7334.39	8300.35	8228.23	8522.48	8423.72	8268.41	8184.64	8148.5	7254.63	7145.43	7102.39	7087.75	6877.88	6837.6	6848.69	6861.43	7415.24	7508.0	7446.7	7545.02	7000.74	6563.08	6278.31	6272.63	6544.4	6973.01	7697.14	8420.5	8627.84	7837.73	7023.33	6496.77	6100.8	5999.26	6173.93	6540.58	6412.31	6399.31	6299.71	5912.49	5726.2	5748.58	5724.57	5822.97	6120.95	6176.26	6233.79	6772.1	7426.16	7500.08	7612.79	8415.51	8181.54	7915.31	6549.52	6343.72	5644.45	5553.23	5816.22	5868.47	5100.0	4391.0	2550.0	1841.0		709.01	2550.0	3259.0	3231.42	3211.03	2794.66	2690.51	690.41	691.33	359.91	261.22	1875.17	1910.53	2335.37	2429.53	4422.77	4452.79	4876.82	4974.14	4680.37	4530.74	4455.51	2143.93	1995.8	1920.84	540.4	666.21	729.89	3147.93	2998.77	3221.93	
13624.54	13465.61	13403.4	13461.44	13663.05	13932.09	14377.47	14832.43	14858.48	14356.13	13858.07	13537.38	13278.66	13169.2	13175.91	13289.09	14599.65	14382.81	14094.43	13975.86	14033.25	13585.82	13386.86	13264.33	13236.73	13191.93	13000.16	12827.92	12893.3	12903.3	12873.79	12901.12	12763.55	13020.64	13055.53	13068.45	12741.65	12742.25	13243.31	14191.92	9215.43	8782.51	7861.35	7591.11	7189.05	7150.0	7387.08	7591.11	7467.08	7362.29	7203.19	7029.06	6927.23	6952.07	7487.54	7400.98	7601.42	8701.94	8635.26	8957.5	8855.56	8691.63	8599.63	8559.03	7515.03	7390.48	7334.39	7312.95	6894.59	6833.66	6829.2	6834.21	7183.32	7244.84	7196.08	7275.89	6714.75	6386.1	6253.85	6377.3	6792.53	7318.66	8134.57	8914.07	9153.17	8314.63	7419.72	6804.06	6271.27	6038.41	6050.67	6295.6	6127.2	6123.23	6041.86	5779.79	5729.76	5762.37	5762.32	5997.61	6412.7	6474.63	6550.55	7179.25	7900.66	7977.57	8100.62	8950.8	8716.5	8440.24	6951.26	6724.01	5802.39	5673.81	5658.66	5672.46	5809.0	5100.0	3259.0	2550.0	709.01		1841.0	2550.0	2522.9	2503.95	2089.78	1984.46	124.66	229.92	549.97	619.17	2582.84	2615.52	3040.19	3135.87	5131.43	5160.82	5584.63	5682.34	5387.63	5237.91	5162.68	2846.27	2697.29	2622.11	425.4	346.51	320.41	2443.31	2294.7	2516.92	
13412.7	13410.04	13539.29	13751.58	14132.56	14539.19	15137.74	15705.89	15795.37	15184.37	14538.79	14083.26	13647.86	13383.43	13196.84	13149.12	15548.66	15323.66	14934.18	14787.88	14852.42	14275.73	14063.01	13817.75	13765.33	13711.12	13373.0	13180.55	13108.62	13091.19	13050.41	12918.31	12755.02	12874.25	12869.98	12894.93	12686.77	13052.14	13884.09	15105.7	10471.15	9962.07	8782.51	8387.26	7591.11	7379.34	7150.0	7181.09	7057.74	6953.73	6925.24	7269.89	7178.2	7334.39	8300.35	8228.23	8522.48	9896.74	9843.07	10221.41	10114.02	9933.83	9825.36	9775.73	8423.72	8268.41	8184.64	8148.5	7254.63	7145.43	7102.39	7087.75	6877.88	6848.69	6837.6	6861.43	6278.31	6272.63	6544.4	6973.01	7697.14	8420.5	9416.37	10304.93	10609.29	9677.65	8627.84	7837.73	7023.33	6496.77	6100.8	5999.26	5726.2	5748.58	5724.57	5822.97	6120.95	6176.26	6233.79	6772.1	7426.16	7500.08	7612.79	8415.51	9264.69	9346.72	9489.68	10430.01	10197.25	9902.85	8181.54	7915.31	6549.52	6343.72	5644.45	5553.23	7650.0	6941.0	5100.0	4391.0	2550.0	1841.0		709.01	690.41	691.33	359.91	261.22	1875.17	1910.53	2335.37	2429.53	4422.77	4452.79	4876.82	4974.14	6972.12	7000.68	7424.13	7522.4	7226.36	7076.51	7001.32	4680.37	4530.74	4455.51	2143.93	1995.8	1920.84	666.21	540.4	729.89	
13403.4	13461.44	13663.05	13932.09	14377.47	14832.43	15483.84	16090.49	16202.09	15554.46	14858.48	14356.13	13858.07	13537.38	13278.66	13169.2	15960.27	15733.01	15309.09	15153.45	15220.31	14599.65	14382.81	14094.43	14033.25	13975.86	13585.82	13386.86	13264.33	13236.73	13191.93	13000.16	12827.92	12893.3	12873.79	12903.3	12742.25	13243.31	14191.92	15506.16	11002.39	10471.15	9215.43	8782.51	7861.35	7591.11	7189.05	7150.0	7029.06	6927.23	6952.07	7487.54	7400.98	7601.42	8701.94	8635.26	8957.5	10411.02	10361.75	10756.26	10647.59	10463.02	10349.82	10297.56	8855.56	8691.63	8599.63	8559.03	7515.03	7390.48	7334.39	7312.95	6894.59	6829.2	6833.66	6834.21	6253.85	6377.3	6792.53	7318.66	8134.57	8914.07	9960.37	10879.5	11203.29	10245.77	9153.17	8314.63	7419.72	6804.06	6271.27	6038.41	5729.76	5762.37	5762.32	5997.61	6412.7	6474.63	6550.55	7179.25	7900.66	7977.57	8100.62	8950.8	9834.78	9918.04	10066.54	11031.64	10799.98	10500.86	8716.5	8440.24	6951.26	6724.01	5802.39	5673.81	8359.0	7650.0	5809.0	5100.0	3259.0	2550.0	709.01		124.66	229.92	549.97	619.17	2582.84	2615.52	3040.19	3135.87	5131.43	5160.82	5584.63	5682.34	7680.95	7709.23	8132.55	8230.99	7934.54	7784.66	7709.48	5387.63	5237.91	5162.68	2846.27	2697.29	2622.11	346.51	425.4	320.41	
13524.2	13579.19	13776.02	14040.45	14479.59	14929.13	15573.8	16174.94	16283.1	15641.02	14951.89	14455.17	13963.66	13647.97	13394.53	13288.61	16040.46	15813.55	15394.92	15240.63	15307.16	14692.48	14476.15	14193.0	14132.81	14075.77	13691.12	13492.77	13374.75	13347.97	13303.49	13116.0	12944.32	13012.75	12993.97	13023.27	12859.7	13350.63	14286.76	15588.1	11058.84	10532.42	9290.99	8864.1	7959.4	7695.31	7306.62	7271.06	7150.0	7048.05	7070.27	7591.11	7504.0	7699.74	8782.51	8714.94	9032.62	10471.15	10420.91	10811.83	10703.44	10519.84	10407.69	10356.01	8931.2	8768.68	8678.01	8638.12	7614.07	7491.16	7436.43	7415.68	7013.32	6949.69	6953.42	6955.04	6374.42	6490.27	6892.61	7406.98	8209.01	8978.21	10013.62	10925.11	11243.45	10293.0	9210.58	8381.89	7500.63	6897.2	6378.81	6155.61	5848.82	5880.89	5879.49	6104.61	6507.55	6568.7	6642.34	7258.35	7968.24	8044.61	8165.66	9005.88	9881.42	9964.37	10111.39	11069.47	10837.44	10539.72	8771.59	8497.55	7031.11	6807.06	5910.77	5785.21	8329.94	7620.96	5780.35	5071.44	3231.42	2522.9	690.41	124.66		105.26	472.76	557.23	2550.0	2578.02	3001.8	3099.65	5100.0	5127.01	5550.05	5648.9	7650.0	7676.68	8099.41	8198.62	7900.56	7750.61	7675.48	5351.78	5201.88	5126.71	2805.21	2655.62	2580.38	223.62	319.23	196.35	
13626.08	13678.48	13871.28	14131.8	14565.7	15010.67	15649.65	16246.15	16351.41	15714.02	15030.66	14538.68	14052.69	13741.21	13492.23	13389.32	16108.09	15881.48	15467.3	15314.16	15380.41	14770.78	14554.88	14276.13	14216.77	14160.03	13779.92	13582.08	13467.85	13441.78	13397.56	13213.69	13042.48	13113.48	13095.32	13124.44	12958.75	13441.12	14366.75	15657.21	11106.75	10584.42	9355.06	8933.26	8042.35	7783.39	7405.84	7373.21	7252.05	7150.0	7170.03	7678.68	7591.11	7782.93	8850.82	8782.51	9096.36	10522.21	10471.15	10859.02	10750.88	10568.11	10456.86	10405.66	8995.37	8834.04	8744.49	8705.21	7697.86	7576.32	7522.73	7502.56	7113.53	7051.37	7054.49	7057.0	6476.17	6585.7	6977.32	7481.88	8272.25	9032.76	10058.95	10963.94	11277.66	10333.25	9259.48	8439.13	7569.36	6976.15	6469.74	6254.56	5949.32	5980.96	5978.43	6195.13	6587.97	6648.47	6720.21	7325.6	8025.8	8101.69	8221.07	9052.85	9921.21	10003.89	10149.66	11101.75	10869.43	10572.91	8818.6	8546.44	7099.02	6877.64	6002.45	5879.39	8306.1	7597.27	5757.48	5048.93	3211.03	2503.95	691.33	229.92	105.26		424.84	522.0	2526.06	2550.0	2972.4	3072.0	5075.03	5100.0	5522.22	5622.0	7624.68	7650.0	8072.15	8172.0	7872.62	7722.63	7647.57	5322.92	5172.95	5097.85	2773.77	2623.87	2548.7	122.41	243.07	93.05	
13680.14	13696.94	13846.89	14073.42	14468.28	14883.59	15489.71	16061.95	16153.16	15539.02	14887.22	14424.16	13976.36	13698.77	13492.71	13426.14	15906.76	15681.61	15289.29	15142.04	15206.82	14624.72	14411.4	14159.27	14105.3	14050.5	13702.01	13508.1	13424.32	13404.34	13362.52	13214.1	13048.16	13150.86	13141.61	13168.07	12974.69	13376.28	14230.69	15463.02	10828.46	10321.03	9141.39	8743.51	7929.66	7705.79	7429.59	7437.38	7314.73	7211.36	7200.69	7597.57	7506.93	7672.19	8657.12	8585.41	8881.44	10255.41	10201.45	10578.4	10471.15	10291.38	10183.32	10133.9	8782.51	8626.7	8542.39	8505.93	7591.11	7478.8	7433.03	7416.93	7150.0	7108.62	7102.82	7118.7	6535.77	6570.86	6877.95	7323.34	8056.13	8780.16	9772.47	10656.28	10956.33	10030.27	8985.86	8197.64	7379.37	6841.14	6416.36	6277.44	5992.35	6018.16	6001.87	6139.22	6462.43	6518.92	6579.51	7128.99	7786.07	7859.99	7972.61	8772.68	9617.05	9698.84	9840.73	10775.09	10542.08	10249.02	8538.79	8273.45	6905.9	6697.95	5956.25	5854.91	7885.83	7177.16	5338.14	4630.0	2794.66	2089.78	359.91	549.97	472.76	424.84		111.8	2107.42	2128.56	2550.0	2650.47	4654.45	4678.26	5100.0	5200.24	7203.58	7228.17	7650.0	7750.16	7450.17	7300.17	7225.13	4900.26	4750.26	4675.21	2350.53	2200.57	2125.46	353.55	206.16	427.27	
13633.28	13641.71	13782.1	14001.47	14388.58	14798.35	15398.74	15967.04	16056.11	15445.59	14799.09	14341.24	13900.81	13630.16	13433.43	13375.21	15809.25	15584.33	15195.39	15049.09	15113.63	14536.16	14323.3	14075.95	14022.98	13968.55	13626.17	13433.07	13355.52	13336.82	13295.51	13154.85	12990.11	13100.1	13092.97	13118.79	12918.98	13303.1	14143.9	15366.6	10721.44	10215.65	9042.61	8648.4	7848.13	7631.2	7377.16	7394.62	7271.68	7168.03	7150.0	7522.3	7431.08	7591.11	8561.41	8489.19	8782.51	10149.65	10095.37	10471.15	10364.0	10184.55	10076.83	10027.6	8683.89	8528.92	8445.41	8409.39	7510.83	7400.34	7356.12	7340.83	7100.7	7064.35	7056.38	7075.5	6492.4	6510.09	6799.36	7233.69	7957.15	8676.19	9664.69	10546.62	10845.73	9921.0	8879.44	8095.14	7284.5	6755.83	6347.32	6225.45	5945.34	5969.74	5950.21	6069.8	6379.01	6434.74	6493.27	7033.14	7683.85	7757.51	7869.24	8665.59	9507.7	9589.42	9731.01	10664.19	10431.15	10138.29	8431.75	8167.16	6810.65	6604.92	5889.01	5792.45	7784.28	7075.48	5235.88	4527.45	2690.51	1984.46	261.22	619.17	557.23	522.0	111.8		2004.55	2028.0	2450.51	2550.0	4553.12	4578.0	5000.25	5100.0	7102.72	7128.0	7550.17	7650.0	7350.68	7200.69	7125.62	4801.04	4651.08	4575.97	2252.22	2102.38	2027.18	460.98	316.23	533.35	
13748.97	13588.95	13524.2	13579.19	13776.02	14040.45	14479.59	14929.13	14951.89	14455.17	13963.66	13647.97	13394.53	13288.61	13298.43	13413.14	14692.48	14476.15	14193.0	14075.77	14132.81	13691.12	13492.77	13374.75	13347.97	13303.49	13116.0	12944.32	13012.75	13023.27	12993.97	13023.72	12886.47	13144.74	13179.85	13192.71	12865.05	12859.7	13350.63	14286.76	9290.99	8864.1	7959.4	7695.31	7306.62	7271.06	7511.74	7715.17	7591.11	7486.31	7327.78	7150.0	7048.05	7070.27	7591.11	7504.0	7699.74	8782.51	8714.94	9032.62	8931.2	8768.68	8678.01	8638.12	7614.07	7491.16	7436.43	7415.68	7013.32	6953.42	6949.69	6955.04	7307.83	7368.91	7320.37	7399.85	6838.38	6510.67	6374.42	6490.27	6892.61	7406.98	8209.01	8978.21	9210.58	8381.89	7500.63	6897.2	6378.81	6155.61	6174.45	6420.02	6250.92	6247.16	6166.13	5903.73	5848.82	5880.89	5879.49	6104.61	6507.55	6568.7	6642.34	7258.35	7968.24	8044.61	8165.66	9005.88	8771.59	8497.55	7031.11	6807.06	5910.77	5785.21	5782.99	5797.1	5780.35	5071.44	3231.42	2522.9	690.41	124.66	1875.17	2582.84	2550.0	2526.06	2107.42	2004.55		105.26	472.76	557.23	2550.0	2578.02	3001.8	3099.65	5100.0	5127.01	5550.05	5648.9	5351.78	5201.88	5126.71	2805.21	2655.62	2580.38	319.23	223.62	196.35	2460.22	2310.76	2534.51	
13853.98	13693.01	13626.08	13678.48	13871.28	14131.8	14565.7	15010.67	15030.66	14538.68	14052.69	13741.21	13492.23	13389.32	13401.78	13517.82	14770.78	14554.88	14276.13	14160.03	14216.77	13779.92	13582.08	13467.85	13441.78	13397.56	13213.69	13042.48	13113.48	13124.44	13095.32	13127.14	12990.17	13249.48	13284.78	13297.58	12969.17	12958.75	13441.12	14366.75	9355.06	8933.26	8042.35	7783.39	7405.84	7373.21	7617.0	7820.0	7695.93	7591.11	7433.01	7252.05	7150.0	7170.03	7678.68	7591.11	7782.93	8850.82	8782.51	9096.36	8995.37	8834.04	8744.49	8705.21	7697.86	7576.32	7522.73	7502.56	7113.53	7054.49	7051.37	7057.0	7413.0	7473.76	7425.37	7504.6	6942.88	6615.83	6476.17	6585.7	6977.32	7481.88	8272.25	9032.76	9259.48	8439.13	7569.36	6976.15	6469.74	6254.56	6278.92	6525.13	6355.5	6351.89	6271.12	6008.33	5949.32	5980.96	5978.43	6195.13	6587.97	6648.47	6720.21	7325.6	8025.8	8101.69	8221.07	9052.85	8818.6	8546.44	7099.02	6877.64	6002.45	5879.39	5887.93	5902.34	5757.48	5048.93	3211.03	2503.95	691.33	229.92	1910.53	2615.52	2578.02	2550.0	2128.56	2028.0	105.26		424.84	522.0	2526.06	2550.0	2972.4	3072.0	5075.03	5100.0	5522.22	5622.0	5322.92	5172.95	5097.85	2773.77	2623.87	2548.7	243.07	122.41	93.05	2479.98	2330.1	2554.69	
13984.32	13789.72	13680.14	13696.94	13846.89	14073.42	14468.28	14883.59	14887.22	14424.16	13976.36	13698.77	13492.71	13426.14	13482.31	13633.46	14624.72	14411.4	14159.27	14050.5	14105.3	13702.01	13508.1	13424.32	13404.34	13362.52	13214.1	13048.16	13150.86	13168.07	13141.61	13209.28	13078.41	13367.22	13410.9	13421.07	13067.71	12974.69	13376.28	14230.69	9141.39	8743.51	7929.66	7705.79	7429.59	7437.38	7779.67	8015.91	7892.57	7788.35	7605.43	7314.73	7211.36	7200.69	7597.57	7506.93	7672.19	8657.12	8585.41	8881.44	8782.51	8626.7	8542.39	8505.93	7591.11	7478.8	7433.03	7416.93	7150.0	7102.82	7108.62	7118.7	7591.11	7669.42	7613.97	7703.63	7150.61	6762.12	6535.77	6570.86	6877.95	7323.34	8056.13	8780.16	8985.86	8197.64	7379.37	6841.14	6416.36	6277.44	6394.46	6709.42	6561.89	6553.26	6462.2	6128.83	5992.35	6018.16	6001.87	6139.22	6462.43	6518.92	6579.51	7128.99	7786.07	7859.99	7972.61	8772.68	8538.79	8273.45	6905.9	6697.95	5956.25	5854.91	6022.24	6058.26	5338.14	4630.0	2794.66	2089.78	359.91	549.97	2335.37	3040.19	3001.8	2972.4	2550.0	2450.51	472.76	424.84		111.8	2107.42	2128.56	2550.0	2650.47	4654.45	4678.26	5100.0	5200.24	4900.26	4750.26	4675.21	2350.53	2200.57	2125.46	206.16	353.55	427.27	2900.43	2750.45	2975.33	
13956.76	13753.41	13633.28	13641.71	13782.1	14001.47	14388.58	14798.35	14799.09	14341.24	13900.81	13630.16	13433.43	13375.21	13441.97	13602.07	14536.16	14323.3	14075.95	13968.55	14022.98	13626.17	13433.07	13355.52	13336.82	13295.51	13154.85	12990.11	13100.1	13118.79	13092.97	13169.38	13040.07	13336.42	13382.3	13391.77	13031.98	12918.98	13303.1	14143.9	9042.61	8648.4	7848.13	7631.2	7377.16	7394.62	7762.53	8008.17	7885.09	7781.09	7591.11	7271.68	7168.03	7150.0	7522.3	7431.08	7591.11	8561.41	8489.19	8782.51	8683.89	8528.92	8445.41	8409.39	7510.83	7400.34	7356.12	7340.83	7100.7	7056.38	7064.35	7075.5	7578.42	7661.76	7604.28	7696.93	7146.77	6741.01	6492.4	6510.09	6799.36	7233.69	7957.15	8676.19	8879.44	8095.14	7284.5	6755.83	6347.32	6225.45	6365.37	6698.97	6557.99	6547.87	6453.87	6101.23	5945.34	5969.74	5950.21	6069.8	6379.01	6434.74	6493.27	7033.14	7683.85	7757.51	7869.24	8665.59	8431.75	8167.16	6810.65	6604.92	5889.01	5792.45	5998.41	6040.28	5235.88	4527.45	2690.51	1984.46	261.22	619.17	2429.53	3135.87	3099.65	3072.0	2650.47	2550.0	557.23	522.0	111.8		2004.55	2028.0	2450.51	2550.0	4553.12	4578.0	5000.25	5100.0	4801.04	4651.08	4575.97	2252.22	2102.38	2027.18	316.23	460.98	533.35	3001.67	2851.75	3076.44	
14428.07	14068.75	13748.97	13588.95	13524.2	13579.19	13776.02	14040.45	13963.66	13647.97	13394.53	13288.61	13298.43	13413.14	13685.32	14008.66	13691.12	13492.77	13374.75	13303.49	13347.97	13116.0	12944.32	13012.75	13023.27	12993.97	13023.72	12886.47	13144.74	13192.71	13179.85	13424.23	13325.61	13756.53	13841.2	13838.16	13366.09	12865.05	12859.7	13350.63	7959.4	7695.31	7306.62	7271.06	7511.74	7715.17	8512.98	8898.56	8782.51	8684.46	8391.01	7591.11	7486.31	7327.78	7150.0	7048.05	7070.27	7591.11	7504.0	7699.74	7614.07	7491.16	7436.43	7415.68	7013.32	6953.42	6949.69	6955.04	7307.83	7320.37	7368.91	7399.85	8403.99	8562.04	8475.29	8610.92	8117.8	7460.5	6838.38	6510.67	6374.42	6490.27	6892.61	7406.98	7500.63	6897.2	6378.81	6155.61	6174.45	6420.02	6968.76	7585.97	7546.15	7514.93	7380.98	6741.42	6250.92	6247.16	6166.13	5903.73	5848.82	5880.89	5879.49	6104.61	6507.55	6568.7	6642.34	7258.35	7031.11	6807.06	5910.77	5785.21	5782.99	5797.1	6704.75	6837.33	3231.42	2522.9	690.41	124.66	1875.17	2582.84	4422.77	5131.43	5100.0	5075.03	4654.45	4553.12	2550.0	2526.06	2107.42	2004.55		105.26	472.76	557.23	2550.0	2578.02	3001.8	3099.65	2805.21	2655.62	2580.38	319.23	223.62	196.35	2310.76	2460.22	2534.51	5006.04	4856.16	5080.74	
14532.75	14173.97	13853.98	13693.01	13626.08	13678.48	13871.28	14131.8	14052.69	13741.21	13492.23	13389.32	13401.78	13517.82	13790.58	14113.62	13779.92	13582.08	13467.85	13397.56	13441.78	13213.69	13042.48	13113.48	13124.44	13095.32	13127.14	12990.17	13249.48	13297.58	13284.78	13529.49	13430.85	13861.42	13945.91	13942.94	13471.25	12969.17	12958.75	13441.12	8042.35	7783.39	7405.84	7373.21	7617.0	7820.0	8613.71	8996.97	8880.73	8782.51	8490.87	7695.93	7591.11	7433.01	7252.05	7150.0	7170.03	7678.68	7591.11	7782.93	7697.86	7576.32	7522.73	7502.56	7113.53	7054.49	7051.37	7057.0	7413.0	7425.37	7473.76	7504.6	8503.4	8660.1	8573.88	8708.72	8214.1	7561.22	6942.88	6615.83	6476.17	6585.7	6977.32	7481.88	7569.36	6976.15	6469.74	6254.56	6278.92	6525.13	7070.86	7683.75	7641.69	7610.93	7477.78	6842.9	6355.5	6351.89	6271.12	6008.33	5949.32	5980.96	5978.43	6195.13	6587.97	6648.47	6720.21	7325.6	7099.02	6877.64	6002.45	5879.39	5887.93	5902.34	6805.22	6936.35	3211.03	2503.95	691.33	229.92	1910.53	2615.52	4452.79	5160.82	5127.01	5100.0	4678.26	4578.0	2578.02	2550.0	2128.56	2028.0	105.26		424.84	522.0	2526.06	2550.0	2972.4	3072.0	2773.77	2623.87	2548.7	243.07	122.41	93.05	2330.1	2479.98	2554.69	5028.97	4879.0	5103.85	
14730.28	14342.64	13984.32	13789.72	13680.14	13696.94	13846.89	14073.42	13976.36	13698.77	13492.71	13426.14	13482.31	13633.46	13946.23	14299.87	13702.01	13508.1	13424.32	13362.52	13404.34	13214.1	13048.16	13150.86	13168.07	13141.61	13209.28	13078.41	13367.22	13421.07	13410.9	13688.04	13595.6	14050.8	14142.4	14137.08	13645.24	13067.71	12974.69	13376.28	7929.66	7705.79	7429.59	7437.38	7779.67	8015.91	8879.9	9284.4	9169.78	9072.93	8765.84	7892.57	7788.35	7605.43	7314.73	7211.36	7200.69	7597.57	7506.93	7672.19	7591.11	7478.8	7433.03	7416.93	7150.0	7102.82	7108.62	7118.7	7591.11	7613.97	7669.42	7703.63	8782.51	8950.56	8860.02	9001.16	8517.7	7828.23	7150.61	6762.12	6535.77	6570.86	6877.95	7323.34	7379.37	6841.14	6416.36	6277.44	6394.46	6709.42	7322.13	7976.92	7950.7	7916.88	7778.34	7102.11	6561.89	6553.26	6462.2	6128.83	5992.35	6018.16	6001.87	6139.22	6462.43	6518.92	6579.51	7128.99	6905.9	6697.95	5956.25	5854.91	6022.24	6058.26	7075.51	7220.11	2794.66	2089.78	359.91	549.97	2335.37	3040.19	4876.82	5584.63	5550.05	5522.22	5100.0	5000.25	3001.8	2972.4	2550.0	2450.51	472.76	424.84		111.8	2107.42	2128.56	2550.0	2650.47	2350.53	2200.57	2125.46	206.16	353.55	427.27	2750.45	2900.43	2975.33	5450.23	5300.24	5525.18	
14721.46	14325.55	13956.76	13753.41	13633.28	13641.71	13782.1	14001.47	13900.81	13630.16	13433.43	13375.21	13441.97	13602.07	13925.55	14287.8	13626.17	13433.07	13355.52	13295.51	13336.82	13154.85	12990.11	13100.1	13118.79	13092.97	13169.38	13040.07	13336.42	13391.77	13382.3	13668.21	13577.51	14039.68	14133.34	14127.33	13629.75	13031.98	12918.98	13303.1	7848.13	7631.2	7377.16	7394.62	7762.53	8008.17	8893.61	9305.16	9191.13	9094.78	8782.51	7885.09	7781.09	7591.11	7271.68	7168.03	7150.0	7522.3	7431.08	7591.11	7510.83	7400.34	7356.12	7340.83	7100.7	7056.38	7064.35	7075.5	7578.42	7604.28	7661.76	7696.93	8800.57	8972.46	8880.46	9023.73	8544.37	7842.59	7146.77	6741.01	6492.4	6510.09	6799.36	7233.69	7284.5	6755.83	6347.32	6225.45	6365.37	6698.97	7331.6	8000.08	7979.5	7944.59	7804.17	7114.25	6557.99	6547.87	6453.87	6101.23	5945.34	5969.74	5950.21	6069.8	6379.01	6434.74	6493.27	7033.14	6810.65	6604.92	5889.01	5792.45	5998.41	6040.28	7091.29	7240.34	2690.51	1984.46	261.22	619.17	2429.53	3135.87	4974.14	5682.34	5648.9	5622.0	5200.24	5100.0	3099.65	3072.0	2650.47	2550.0	557.23	522.0	111.8		2004.55	2028.0	2450.51	2550.0	2252.22	2102.38	2027.18	316.23	460.98	533.35	2851.75	3001.67	3076.44	5550.9	5400.93	5625.79	
15501.92	14973.47	14428.07	14068.75	13748.97	13588.95	13524.2	13579.19	13394.53	13288.61	13298.43	13413.14	13685.32	14008.66	14516.63	15019.25	13116.0	12944.32	13012.75	12993.97	13023.27	13023.72	12886.47	13144.74	13192.71	13179.85	13424.23	13325.61	13756.53	13838.16	13841.2	14276.12	14215.75	14788.67	14914.9	14897.88	14310.84	13366.09	12865.05	12859.7	7306.62	7271.06	7511.74	7715.17	8512.98	8898.56	10075.74	10575.91	10471.15	10382.66	10006.34	8782.51	8684.46	8391.01	7591.11	7486.31	7327.78	7150.0	7048.05	7070.27	7013.32	6953.42	6949.69	6955.04	7307.83	7320.37	7368.91	7399.85	8403.99	8475.29	8562.04	8610.92	10042.65	10262.62	10152.74	10321.97	9901.45	9051.75	8117.8	7460.5	6838.38	6510.67	6374.42	6490.27	6378.81	6155.61	6174.45	6420.02	6968.76	7585.97	8485.77	9321.06	9371.22	9323.42	9161.96	8309.3	7546.15	7514.93	7380.98	6741.42	6250.92	6247.16	6166.13	5903.73	5848.82	5880.89	5879.49	6104.61	5910.77	5785.21	5782.99	5797.1	6704.75	6837.33	8334.83	8537.96	690.41	124.66	1875.17	2582.84	4422.77	5131.43	6972.12	7680.95	7650.0	7624.68	7203.58	7102.72	5100.0	5075.03	4654.45	4553.12	2550.0	2526.06	2107.42	2004.55		105.26	472.76	557.23	319.23	223.62	196.35	2310.76	2460.22	2534.51	4856.16	5006.04	5080.74	7554.67	7404.73	7629.49	
15603.64	15076.77	14532.75	14173.97	13853.98	13693.01	13626.08	13678.48	13492.23	13389.32	13401.78	13517.82	13790.58	14113.62	14620.44	15121.58	13213.69	13042.48	13113.48	13095.32	13124.44	13127.14	12990.17	13249.48	13297.58	13284.78	13529.49	13430.85	13861.42	13942.94	13945.91	14379.76	14319.08	14890.74	15016.54	14999.67	14413.71	13471.25	12969.17	12958.75	7405.84	7373.21	7617.0	7820.0	8613.71	8996.97	10167.5	10665.06	10559.95	10471.15	10096.79	8880.73	8782.51	8490.87	7695.93	7591.11	7433.01	7252.05	7150.0	7170.03	7113.53	7054.49	7051.37	7057.0	7413.0	7425.37	7473.76	7504.6	8503.4	8573.88	8660.1	8708.72	10132.53	10350.98	10241.67	10410.07	9987.2	9142.2	8214.1	7561.22	6942.88	6615.83	6476.17	6585.7	6469.74	6254.56	6278.92	6525.13	7070.86	7683.75	8577.55	9407.86	9455.34	9408.03	9247.3	8399.74	7641.69	7610.93	7477.78	6842.9	6355.5	6351.89	6271.12	6008.33	5949.32	5980.96	5978.43	6195.13	6002.45	5879.39	5887.93	5902.34	6805.22	6936.35	8423.73	8625.15	691.33	229.92	1910.53	2615.52	4452.79	5160.82	7000.68	7709.23	7676.68	7650.0	7228.17	7128.0	5127.01	5100.0	4678.26	4578.0	2578.02	2550.0	2128.56	2028.0	105.26		424.84	522.0	243.07	122.41	93.05	2330.1	2479.98	2554.69	4879.0	5028.97	5103.85	7578.65	7428.66	7653.57	
15855.8	15305.92	14730.28	14342.64	13984.32	13789.72	13680.14	13696.94	13492.71	13426.14	13482.31	13633.46	13946.23	14299.87	14840.04	15365.75	13214.1	13048.16	13150.86	13141.61	13168.07	13209.28	13078.41	13367.22	13421.07	13410.9	13688.04	13595.6	14050.8	14137.08	14142.4	14602.91	14547.88	15138.44	15269.83	15251.03	14650.09	13645.24	13067.71	12974.69	7429.59	7437.38	7779.67	8015.91	8879.9	9284.4	10497.0	11006.84	10903.31	10815.86	10432.76	9169.78	9072.93	8765.84	7892.57	7788.35	7605.43	7314.73	7211.36	7200.69	7150.0	7102.82	7108.62	7118.7	7591.11	7613.97	7669.42	7703.63	8782.51	8860.02	8950.56	9001.16	10471.15	10696.26	10584.54	10756.43	10342.93	9478.46	8517.7	7828.23	7150.61	6762.12	6535.77	6570.86	6416.36	6277.44	6394.46	6709.42	7322.13	7976.92	8907.48	9759.67	9817.02	9768.01	9604.69	8736.27	7950.7	7916.88	7778.34	7102.11	6561.89	6553.26	6462.2	6128.83	5992.35	6018.16	6001.87	6139.22	5956.25	5854.91	6022.24	6058.26	7075.51	7220.11	8767.18	8975.66	359.91	549.97	2335.37	3040.19	4876.82	5584.63	7424.13	8132.55	8099.41	8072.15	7650.0	7550.17	5550.05	5522.22	5100.0	5000.25	3001.8	2972.4	2550.0	2450.51	472.76	424.84		111.8	206.16	353.55	427.27	2750.45	2900.43	2975.33	5300.24	5450.23	5525.18	8000.16	7850.16	8075.12	
15863.68	15306.58	14721.46	14325.55	13956.76	13753.41	13633.28	13641.71	13433.43	13375.21	13441.97	13602.07	13925.55	14287.8	14837.81	15371.12	13154.85	12990.11	13100.1	13092.97	13118.79	13169.38	13040.07	13336.42	13391.77	13382.3	13668.21	13577.51	14039.68	14127.33	14133.34	14601.8	14548.52	15144.97	15278.14	15258.71	14653.07	13629.75	13031.98	12918.98	7377.16	7394.62	7762.53	8008.17	8893.61	9305.16	10532.84	11047.46	10944.6	10857.71	10471.15	9191.13	9094.78	8782.51	7885.09	7781.09	7591.11	7271.68	7168.03	7150.0	7100.7	7056.38	7064.35	7075.5	7578.42	7604.28	7661.76	7696.93	8800.57	8880.46	8972.46	9023.73	10510.59	10738.37	10625.68	10798.97	10389.48	9517.16	8544.37	7842.59	7146.77	6741.01	6492.4	6510.09	6347.32	6225.45	6365.37	6698.97	7331.6	8000.08	8943.82	9804.65	9866.24	9816.49	9652.07	8775.25	7979.5	7944.59	7804.17	7114.25	6557.99	6547.87	6453.87	6101.23	5945.34	5969.74	5950.21	6069.8	5889.01	5792.45	5998.41	6040.28	7091.29	7240.34	8808.91	9020.25	261.22	619.17	2429.53	3135.87	4974.14	5682.34	7522.4	8230.99	8198.62	8172.0	7750.16	7650.0	5648.9	5622.0	5200.24	5100.0	3099.65	3072.0	2650.47	2550.0	557.23	522.0	111.8		316.23	460.98	533.35	2851.75	3001.67	3076.44	5400.93	5550.9	5625.79	8100.62	7950.63	8175.54	
15798.93	15262.09	14703.78	14331.48	13992.9	13815.07	13726.12	13759.59	13563.57	13480.22	13515.54	13649.4	13941.82	14279.4	14801.48	15313.43	13284.95	13116.59	13204.64	13191.2	13218.92	13241.7	13107.84	13382.08	13433.05	13421.55	13682.11	13586.42	14028.63	14112.36	14116.42	14562.37	14504.19	15084.1	15212.28	15194.59	14602.14	13631.21	13092.08	13038.4	7488.41	7477.17	7770.5	7989.27	8814.2	9206.18	10392.52	10894.22	10789.61	10701.23	10324.0	9090.56	8992.87	8694.97	7865.49	7760.93	7591.11	7355.18	7252.4	7256.2	7202.78	7150.0	7151.57	7159.54	7573.8	7591.11	7642.81	7675.22	8709.19	8782.51	8870.46	8919.86	10360.62	10581.23	10471.15	10640.67	10220.63	9369.43	8429.49	7761.85	7117.32	6761.01	6577.33	6646.9	6509.36	6336.11	6408.69	6688.52	7264.7	7895.01	8802.58	9640.09	9690.44	9642.65	9481.17	8626.99	7859.03	7827.12	7691.88	7040.06	6529.1	6523.18	6437.58	6140.44	6041.44	6070.0	6060.12	6233.18	6045.86	5934.85	6026.85	6051.86	7007.03	7143.7	8653.26	8856.92	540.4	425.4	2143.93	2846.27	4680.37	5387.63	7226.36	7934.54	7900.56	7872.62	7450.17	7350.68	5351.78	5322.92	4900.26	4801.04	2805.21	2773.77	2350.53	2252.22	319.23	243.07	206.16	316.23		150.0	225.08	2550.0	2700.0	2775.01	5100.0	5250.0	5325.0	7800.0	7650.0	7875.0	
15725.18	15197.08	14650.64	14289.03	13964.46	13798.78	13725.02	13771.03	13581.31	13485.22	13505.05	13626.31	13904.17	14230.47	14740.1	15242.74	13302.73	13132.53	13209.47	13192.88	13221.54	13230.65	13094.61	13358.24	13407.13	13394.68	13643.41	13545.46	13978.56	14060.51	14063.7	14499.66	14439.35	15012.08	15138.12	15121.17	14534.44	13586.85	13075.17	13050.77	7498.54	7473.1	7730.95	7937.41	8735.67	9119.36	10288.89	10785.55	10680.3	10591.38	10217.75	9003.13	8904.92	8613.07	7813.39	7708.62	7548.01	7351.65	7249.36	7263.95	7208.5	7151.57	7150.0	7156.39	7528.61	7542.05	7591.11	7622.27	8625.69	8696.26	8782.51	8831.14	10253.29	10471.15	10362.07	10530.15	10106.25	9263.17	8336.44	7683.18	7061.25	6727.65	6575.05	6670.55	6546.25	6346.75	6386.53	6641.25	7192.17	7806.17	8698.96	9527.39	9573.61	9526.54	9366.16	8520.71	7763.94	7733.24	7600.16	6964.55	6473.69	6469.63	6387.88	6116.58	6045.11	6075.71	6070.63	6270.96	6080.37	5961.96	5998.03	6015.19	6927.26	7058.68	8544.14	8744.86	666.21	346.51	1995.8	2697.29	4530.74	5237.91	7076.51	7784.66	7750.61	7722.63	7300.17	7200.69	5201.88	5172.95	4750.26	4651.08	2655.62	2623.87	2200.57	2102.38	223.62	122.41	353.55	460.98	150.0		75.24	2400.0	2550.0	2625.01	4950.0	5100.0	5175.0	7650.0	7500.0	7725.0	
15683.46	15159.6	14618.94	14262.57	13944.93	13785.26	13719.09	13771.38	13584.84	13482.36	13494.44	13609.43	13880.09	14200.84	14704.38	15202.51	13306.29	13135.18	13206.52	13188.37	13217.49	13219.77	13082.66	13341.0	13388.86	13375.94	13618.82	13519.76	13948.38	14029.47	14032.23	14463.31	14401.98	14971.21	15096.23	15079.63	14495.68	13559.49	13061.38	13051.62	7498.75	7466.19	7706.37	7906.75	8691.95	9071.64	10233.13	10727.41	10621.86	10532.69	10160.77	8955.12	8856.66	8567.74	7782.63	7677.78	7521.71	7345.04	7243.0	7263.0	7206.54	7147.54	7144.39	7150.0	7501.28	7512.81	7560.58	7591.11	8579.58	8648.84	8734.26	8782.51	10195.8	10412.37	10303.75	10471.15	10045.48	9206.21	8285.79	7639.49	7028.64	6706.29	6569.19	6677.71	6560.11	6347.42	6370.8	6613.04	7151.51	7757.56	8643.27	9467.43	9511.74	9465.0	9305.14	8463.78	7712.36	7682.24	7550.2	6922.47	6441.48	6438.35	6358.5	6100.05	6042.35	6073.96	6071.29	6285.34	6093.13	5971.01	5979.07	5992.33	6883.11	7011.99	8485.89	8685.22	729.89	320.41	1920.84	2622.11	4455.51	5162.68	7001.32	7709.48	7675.48	7647.57	7225.13	7125.62	5126.71	5097.85	4675.21	4575.97	2580.38	2548.7	2125.46	2027.18	196.35	93.05	427.27	533.35	225.08	75.24		2325.01	2475.01	2550.0	4875.0	5025.0	5100.0	7575.0	7425.0	7650.0	
14703.78	14331.48	13992.9	13815.07	13726.12	13759.59	13928.97	14170.44	14081.05	13788.81	13563.57	13480.22	13515.54	13649.4	13941.82	14279.4	13807.34	13611.74	13514.81	13449.26	13492.14	13284.95	13116.59	13204.64	13218.92	13191.2	13241.7	13107.84	13382.08	13433.05	13421.55	13682.11	13586.42	14028.63	14116.42	14112.36	13631.21	13092.08	13038.4	13476.0	8048.41	7809.79	7488.41	7477.17	7770.5	7989.27	8814.2	9206.18	9090.56	8992.87	8694.97	7865.49	7760.93	7591.11	7355.18	7252.4	7256.2	7703.01	7613.64	7790.06	7707.3	7591.11	7542.05	7524.22	7202.78	7150.0	7151.57	7159.54	7573.8	7591.11	7642.81	7675.22	8709.19	8870.46	8782.51	8919.86	8429.49	7761.85	7117.32	6761.01	6577.33	6646.9	6990.8	7460.31	7528.43	6968.59	6509.36	6336.11	6408.69	6688.52	7264.7	7895.01	7859.03	7827.12	7691.88	7040.06	6529.1	6523.18	6437.58	6140.44	6041.44	6070.0	6060.12	6233.18	6585.88	6644.02	6709.14	7280.45	7055.98	6842.88	6045.86	5934.85	6026.85	6051.86	7007.03	7143.7	2998.77	2294.7	540.4	425.4	2143.93	2846.27	4680.37	5387.63	5351.78	5322.92	4900.26	4801.04	2805.21	2773.77	2350.53	2252.22	319.23	243.07	206.16	316.23	2310.76	2330.1	2750.45	2851.75	2550.0	2400.0	2325.01		150.0	225.08	2550.0	2700.0	2775.01	5250.0	5100.0	5325.0	
14650.64	14289.03	13964.46	13798.78	13725.02	13771.03	13955.33	14208.49	14125.24	13821.41	13581.31	13485.22	13505.05	13626.31	13904.17	14230.47	13852.08	13655.14	13547.79	13479.32	13523.03	13302.73	13132.53	13209.47	13221.54	13192.88	13230.65	13094.61	13358.24	13407.13	13394.68	13643.41	13545.46	13978.56	14063.7	14060.51	13586.85	13075.17	13050.77	13516.29	8105.17	7854.74	7498.54	7473.1	7730.95	7937.41	8735.67	9119.36	9003.13	8904.92	8613.07	7813.39	7708.62	7548.01	7351.65	7249.36	7263.95	7749.16	7660.84	7846.18	7762.09	7642.81	7591.11	7571.92	7208.5	7151.57	7150.0	7156.39	7528.61	7542.05	7591.11	7622.27	8625.69	8782.51	8696.26	8831.14	8336.44	7683.18	7061.25	6727.65	6575.05	6670.55	7043.17	7532.35	7610.77	7032.87	6546.25	6346.75	6386.53	6641.25	7192.17	7806.17	7763.94	7733.24	7600.16	6964.55	6473.69	6469.63	6387.88	6116.58	6045.11	6075.71	6070.63	6270.96	6647.05	6706.52	6775.32	7364.95	7139.36	6921.89	6080.37	5961.96	5998.03	6015.19	6927.26	7058.68	3147.93	2443.31	666.21	346.51	1995.8	2697.29	4530.74	5237.91	5201.88	5172.95	4750.26	4651.08	2655.62	2623.87	2200.57	2102.38	223.62	122.41	353.55	460.98	2460.22	2479.98	2900.43	3001.67	2700.0	2550.0	2475.01	150.0		75.24	2400.0	2550.0	2625.01	5100.0	4950.0	5175.0	
14618.94	14262.57	13944.93	13785.26	13719.09	13771.38	13963.2	14222.29	14142.17	13832.44	13584.84	13482.36	13494.44	13609.43	13880.09	14200.84	13869.29	13671.68	13559.03	13489.08	13533.21	13306.29	13135.18	13206.52	13217.49	13188.37	13219.77	13082.66	13341.0	13388.86	13375.94	13618.82	13519.76	13948.38	14032.23	14029.47	13559.49	13061.38	13051.62	13531.25	8128.92	7872.49	7498.75	7466.19	7706.37	7906.75	8691.95	9071.64	8955.12	8856.66	8567.74	7782.63	7677.78	7521.71	7345.04	7243.0	7263.0	7767.54	7679.77	7869.64	7784.87	7664.03	7611.0	7591.11	7206.54	7147.54	7144.39	7150.0	7501.28	7512.81	7560.58	7591.11	8579.58	8734.26	8648.84	8782.51	8285.79	7639.49	7028.64	6706.29	6569.19	6677.71	7064.83	7564.01	7647.75	7060.61	6560.11	6347.42	6370.8	6613.04	7151.51	7757.56	7712.36	7682.24	7550.2	6922.47	6441.48	6438.35	6358.5	6100.05	6042.35	6073.96	6071.29	6285.34	6673.25	6733.39	6804.08	7403.08	7176.93	6957.22	6093.13	5971.01	5979.07	5992.33	6883.11	7011.99	3221.93	2516.92	729.89	320.41	1920.84	2622.11	4455.51	5162.68	5126.71	5097.85	4675.21	4575.97	2580.38	2548.7	2125.46	2027.18	196.35	93.05	427.27	533.35	2534.51	2554.69	2975.33	3076.44	2775.01	2625.01	2550.0	225.08	75.24		2325.01	2475.01	2550.0	5025.0	4875.0	5100.0	
13992.9	13815.07	13726.12	13759.59	13928.97	14170.44	14581.88	15009.37	15019.53	14544.8	14081.05	13788.81	13563.57	13480.22	13515.54	13649.4	14758.05	14543.69	14280.84	14169.07	14224.66	13807.34	13611.74	13514.81	13492.14	13449.26	13284.95	13116.59	13204.64	13218.92	13191.2	13241.7	13107.84	13382.08	13421.55	13433.05	13092.08	13038.4	13476.0	14360.01	9299.6	8892.83	8048.41	7809.79	7488.41	7477.17	7770.5	7989.27	7865.49	7760.93	7591.11	7355.18	7252.4	7256.2	7703.01	7613.64	7790.06	8807.9	8737.44	9040.05	8940.36	8782.51	8696.26	8658.75	7707.3	7591.11	7542.05	7524.22	7202.78	7150.0	7151.57	7159.54	7573.8	7642.81	7591.11	7675.22	7117.32	6761.01	6577.33	6646.9	6990.8	7460.31	8215.0	8951.89	9164.49	8365.48	7528.43	6968.59	6509.36	6336.11	6408.69	6688.52	6529.1	6523.18	6437.58	6140.44	6041.44	6070.0	6060.12	6233.18	6585.88	6644.02	6709.14	7280.45	7953.21	8027.84	8142.79	8953.35	8719.31	8451.77	7055.98	6842.88	6045.86	5934.85	6026.85	6051.86	5540.6	4832.74	2998.77	2294.7	540.4	425.4	2143.93	2846.27	2805.21	2773.77	2350.53	2252.22	319.23	243.07	206.16	316.23	2310.76	2330.1	2750.45	2851.75	4856.16	4879.0	5300.24	5400.93	5100.0	4950.0	4875.0	2550.0	2400.0	2325.01		150.0	225.08	2700.0	2550.0	2775.01	
13964.46	13798.78	13725.02	13771.03	13955.33	14208.49	14633.22	15070.71	15086.35	14601.93	14125.24	13821.41	13581.31	13485.22	13505.05	13626.31	14825.74	14610.52	14338.76	14224.51	14280.77	13852.08	13655.14	13547.79	13523.03	13479.32	13302.73	13132.53	13209.47	13221.54	13192.88	13230.65	13094.61	13358.24	13394.68	13407.13	13075.17	13050.77	13516.29	14424.37	9389.59	8975.05	8105.17	7854.74	7498.54	7473.1	7730.95	7937.41	7813.39	7708.62	7548.01	7351.65	7249.36	7263.95	7749.16	7660.84	7846.18	8891.41	8822.06	9130.44	9030.09	8870.46	8782.51	8744.08	7762.09	7642.81	7591.11	7571.92	7208.5	7151.57	7150.0	7156.39	7528.61	7591.11	7542.05	7622.27	7061.25	6727.65	6575.05	6670.55	7043.17	7532.35	8305.8	9054.35	9273.58	8464.41	7610.77	7032.87	6546.25	6346.75	6386.53	6641.25	6473.69	6469.63	6387.88	6116.58	6045.11	6075.71	6070.63	6270.96	6647.05	6706.52	6775.32	7364.95	8051.58	8126.84	8243.94	9064.49	8830.34	8560.67	7139.36	6921.89	6080.37	5961.96	5998.03	6015.19	5690.35	4982.42	3147.93	2443.31	666.21	346.51	1995.8	2697.29	2655.62	2623.87	2200.57	2102.38	223.62	122.41	353.55	460.98	2460.22	2479.98	2900.43	3001.67	5006.04	5028.97	5450.23	5550.9	5250.0	5100.0	5025.0	2700.0	2550.0	2475.01	150.0		75.24	2550.0	2400.0	2625.01	
13944.93	13785.26	13719.09	13771.38	13963.2	14222.29	14653.79	15096.39	15114.86	14625.46	14142.17	13832.44	13584.84	13482.36	13494.44	13609.43	14854.71	14639.06	14362.7	14247.2	14303.79	13869.29	13671.68	13559.03	13533.21	13489.08	13306.29	13135.18	13206.52	13217.49	13188.37	13219.77	13082.66	13341.0	13375.94	13388.86	13061.38	13051.62	13531.25	14451.63	9430.4	9011.85	8128.92	7872.49	7498.75	7466.19	7706.37	7906.75	7782.63	7677.78	7521.71	7345.04	7243.0	7263.0	7767.54	7679.77	7869.64	8928.88	8860.12	9171.49	9070.79	8910.24	8821.41	8782.51	7784.87	7664.03	7611.0	7591.11	7206.54	7147.54	7144.39	7150.0	7501.28	7560.58	7512.81	7591.11	7028.64	6706.29	6569.19	6677.71	7064.83	7564.01	8347.11	9101.74	9324.49	8509.98	7647.75	7060.61	6560.11	6347.42	6370.8	6613.04	6441.48	6438.35	6358.5	6100.05	6042.35	6073.96	6071.29	6285.34	6673.25	6733.39	6804.08	7403.08	8096.89	8172.47	8290.69	9116.5	8882.3	8611.5	7176.93	6957.22	6093.13	5971.01	5979.07	5992.33	5764.89	5056.88	3221.93	2516.92	729.89	320.41	1920.84	2622.11	2580.38	2548.7	2125.46	2027.18	196.35	93.05	427.27	533.35	2534.51	2554.69	2975.33	3076.44	5080.74	5103.85	5525.18	5625.79	5325.0	5175.0	5100.0	2775.01	2625.01	2550.0	225.08	75.24		2475.01	2325.01	2550.0	
13725.02	13771.03	13955.33	14208.49	14633.22	15070.71	15700.84	16290.37	16391.41	15760.91	15086.35	14601.93	14125.24	13821.41	13581.31	13485.22	16147.14	15920.96	15513.3	15361.86	15427.68	14825.74	14610.52	14338.76	14280.77	14224.51	13852.08	13655.14	13547.79	13523.03	13479.32	13302.73	13132.53	13209.47	13192.88	13221.54	13050.77	13516.29	14424.37	15698.41	11119.35	10602.42	9389.59	8975.05	8105.17	7854.74	7498.54	7473.1	7351.65	7249.36	7263.95	7749.16	7660.84	7846.18	8891.41	8822.06	9130.44	10538.97	10486.85	10870.72	10762.9	10581.23	10471.15	10420.6	9030.09	8870.46	8782.51	8744.08	7762.09	7642.81	7591.11	7571.92	7208.5	7150.0	7151.57	7156.39	6575.05	6670.55	7043.17	7532.35	8305.8	9054.35	10068.33	10965.0	11272.97	10336.16	9273.58	8464.41	7610.77	7032.87	6546.25	6346.75	6045.11	6075.71	6070.63	6270.96	6647.05	6706.52	6775.32	7364.95	8051.58	8126.84	8243.94	9064.49	9923.6	10005.93	10150.12	11094.71	10862.06	10567.05	8830.34	8560.67	7139.36	6921.89	6080.37	5961.96	8237.45	7528.89	5690.35	4982.42	3147.93	2443.31	666.21	346.51	223.62	122.41	353.55	460.98	2460.22	2479.98	2900.43	3001.67	5006.04	5028.97	5450.23	5550.9	7554.67	7578.65	8000.16	8100.62	7800.0	7650.0	7575.0	5250.0	5100.0	5025.0	2700.0	2550.0	2475.01		150.0	75.24	
13726.12	13759.59	13928.97	14170.44	14581.88	15009.37	15628.54	16210.07	16306.5	15683.63	15019.53	14544.8	14081.05	13788.81	13563.57	13480.22	16061.21	15835.51	15435.03	15285.52	15350.87	14758.05	14543.69	14280.84	14224.66	14169.07	13807.34	13611.74	13514.81	13492.14	13449.26	13284.95	13116.59	13204.64	13191.2	13218.92	13038.4	13476.0	14360.01	15614.82	11008.78	10496.53	9299.6	8892.83	8048.41	7809.79	7488.41	7477.17	7355.18	7252.4	7256.2	7703.01	7613.64	7790.06	8807.9	8737.44	9040.05	10432.01	10378.98	10759.41	10651.88	10471.15	10362.07	10312.08	8940.36	8782.51	8696.26	8658.75	7707.3	7591.11	7542.05	7524.22	7202.78	7151.57	7150.0	7159.54	6577.33	6646.9	6990.8	7460.31	8215.0	8951.89	9955.21	10845.33	11149.14	10217.94	9164.49	8365.48	7528.43	6968.59	6509.36	6336.11	6041.44	6070.0	6060.12	6233.18	6585.88	6644.02	6709.14	7280.45	7953.21	8027.84	8142.79	8953.35	9805.02	9887.08	10030.08	10969.28	10736.43	10442.46	8719.31	8451.77	7055.98	6842.88	6045.86	5934.85	8087.57	7379.03	5540.6	4832.74	2998.77	2294.7	540.4	425.4	319.23	243.07	206.16	316.23	2310.76	2330.1	2750.45	2851.75	4856.16	4879.0	5300.24	5400.93	7404.73	7428.66	7850.16	7950.63	7650.0	7500.0	7425.0	5100.0	4950.0	4875.0	2550.0	2400.0	2325.01	150.0		225.08	
13719.09	13771.38	13963.2	14222.29	14653.79	15096.39	15732.16	16325.85	16429.3	15794.82	15114.86	14625.46	14142.17	13832.44	13584.84	13482.36	16185.56	15959.13	15547.74	15395.29	15461.37	14854.71	14639.06	14362.7	14303.79	14247.2	13869.29	13671.68	13559.03	13533.21	13489.08	13306.29	13135.18	13206.52	13188.37	13217.49	13051.62	13531.25	14451.63	15735.62	11170.97	10651.55	9430.4	9011.85	8128.92	7872.49	7498.75	7466.19	7345.04	7243.0	7263.0	7767.54	7679.77	7869.64	8928.88	8860.12	9171.49	10588.68	10537.05	10922.74	10814.77	10632.61	10521.99	10471.15	9070.79	8910.24	8821.41	8782.51	7784.87	7664.03	7611.0	7591.11	7206.54	7144.39	7147.54	7150.0	6569.19	6677.71	7064.83	7564.01	8347.11	9101.74	10121.35	11021.54	11331.77	10391.93	9324.49	8509.98	7647.75	7060.61	6560.11	6347.42	6042.35	6073.96	6071.29	6285.34	6673.25	6733.39	6804.08	7403.08	8096.89	8172.47	8290.69	9116.5	9979.58	10062.05	10206.89	11154.4	10921.87	10626.29	8882.3	8611.5	7176.93	6957.22	6093.13	5971.01	8312.16	7603.57	5764.89	5056.88	3221.93	2516.92	729.89	320.41	196.35	93.05	427.27	533.35	2534.51	2554.69	2975.33	3076.44	5080.74	5103.85	5525.18	5625.79	7629.49	7653.57	8075.12	8175.54	7875.0	7725.0	7650.0	5325.0	5175.0	5100.0	2775.01	2625.01	2550.0	75.24	225.08		
